File: CV data/012615_KM_o2 purge_0mmhg.txt
EXPLAIN
TAG	CV
TITLE	LABEL	Cyclic Voltammetry	Test &Identifier
DATE	LABEL	1/26/2015	Date
TIME	LABEL	15:11:37	Time
NOTES	NOTES	1	&Notes...

PSTAT	PSTAT	IFC1000-06010	Potentiostat
VINIT	POTEN	1.00000E+000	F	Initial &E (V)
VLIMIT1	POTEN	-8.00000E-001	F	Scan Limit &1 (V)
VLIMIT2	POTEN	1.00000E+000	F	Scan Limit &2 (V)
VFINAL	POTEN	-8.00000E-001	F	Final &E (V)
SCANRATE	QUANT	4.99999E+001	&Scan Rate (mV/s)
STEPSIZE	QUANT	2.00000E+000	St&ep Size (mV)
CYCLES	IQUANT	10	C&ycles (#)
IMODE	SELECTOR	0	I/E Range &Mode
IRANGE	QUANT	1.00000E+001	&Max Current (mA)
AREA	QUANT	1.00000E+000	Electrode &Area (cm^2)
ELECTRODETYPE	SELECTOR	0	Electrode Type
STRIPPING	TOGGLE	F	Used for Stripping
POLARITY	TOGGLE	F	Signal Polarity
CONDIT	TWOPARAM	F	1.50000E+001	0.00000E+000	Conditionin&g	Time(s)	E(V)
DELAY	TWOPARAM	T	2.00000E+001	0.00000E+000	Init. De&lay	Time(s)	Stab.(mV/s)
EQDELAY	QUANT	5.00000E+000	Equil. &Time (s)
IRCOMP	SELECTOR	1	IRCom&p
PFCOR	QUANT	5.00000E+001	PF Corr. (ohm)
SAMPLINGMODE	SELECTOR	1	Sampling &Mode
OCVCURVE	TABLE	77
	Pt	T	Vf	Vm	Ach	Over
	#	s	V vs. Ref.	V	V	bits
	0	0.258333	3.66723E-001	3.66723E-001	0.00000E+000	...........
	1	0.516667	3.66719E-001	3.66539E-001	0.00000E+000	...........
	2	0.775	3.66698E-001	3.66364E-001	0.00000E+000	...........
	3	1.03333	3.66637E-001	3.66189E-001	0.00000E+000	...........
	4	1.29167	3.66526E-001	3.66003E-001	0.00000E+000	...........
	5	1.55	3.66376E-001	3.65843E-001	0.00000E+000	...........
	6	1.80833	3.66206E-001	3.65674E-001	0.00000E+000	...........
	7	2.06667	3.66031E-001	3.65508E-001	0.00000E+000	...........
	8	2.325	3.65857E-001	3.65332E-001	0.00000E+000	...........
	9	2.58333	3.65687E-001	3.65172E-001	0.00000E+000	...........
	10	2.84167	3.65519E-001	3.65030E-001	0.00000E+000	...........
	11	3.1	3.65354E-001	3.64874E-001	0.00000E+000	...........
	12	3.35833	3.65194E-001	3.64725E-001	0.00000E+000	...........
	13	3.61667	3.65039E-001	3.64580E-001	0.00000E+000	...........
	14	3.875	3.64887E-001	3.64418E-001	0.00000E+000	...........
	15	4.13333	3.64737E-001	3.64272E-001	0.00000E+000	...........
	16	4.39167	3.64586E-001	3.64128E-001	0.00000E+000	...........
	17	4.65	3.64435E-001	3.63980E-001	0.00000E+000	...........
	18	4.90833	3.64286E-001	3.63838E-001	0.00000E+000	...........
	19	5.16667	3.64139E-001	3.63701E-001	0.00000E+000	...........
	20	5.425	3.63994E-001	3.63557E-001	0.00000E+000	...........
	21	5.68333	3.63851E-001	3.63419E-001	0.00000E+000	...........
	22	5.94167	3.63710E-001	3.63292E-001	0.00000E+000	...........
	23	6.2	3.63571E-001	3.63153E-001	0.00000E+000	...........
	24	6.45833	3.63434E-001	3.63018E-001	0.00000E+000	...........
	25	6.71667	3.63299E-001	3.62885E-001	0.00000E+000	...........
	26	6.975	3.63164E-001	3.62754E-001	0.00000E+000	...........
	27	7.23333	3.63030E-001	3.62636E-001	0.00000E+000	...........
	28	7.49167	3.62898E-001	3.62502E-001	0.00000E+000	...........
	29	7.75	3.62769E-001	3.62371E-001	0.00000E+000	...........
	30	8.00833	3.62641E-001	3.62246E-001	0.00000E+000	...........
	31	8.26667	3.62512E-001	3.62110E-001	0.00000E+000	...........
	32	8.525	3.62383E-001	3.61994E-001	0.00000E+000	...........
	33	8.78333	3.62255E-001	3.61881E-001	0.00000E+000	...........
	34	9.04167	3.62129E-001	3.61758E-001	0.00000E+000	...........
	35	9.3	3.62006E-001	3.61633E-001	0.00000E+000	...........
	36	9.5583	3.61886E-001	3.61517E-001	0.00000E+000	...........
	37	9.8167	3.61766E-001	3.61401E-001	0.00000E+000	...........
	38	10.075	3.61646E-001	3.61295E-001	0.00000E+000	...........
	39	10.3333	3.61528E-001	3.61158E-001	0.00000E+000	...........
	40	10.5917	3.61411E-001	3.61047E-001	0.00000E+000	...........
	41	10.85	3.61294E-001	3.60930E-001	0.00000E+000	...........
	42	11.1083	3.61175E-001	3.60819E-001	0.00000E+000	...........
	43	11.3667	3.61058E-001	3.60706E-001	0.00000E+000	...........
	44	11.625	3.60942E-001	3.60595E-001	0.00000E+000	...........
	45	11.8833	3.60828E-001	3.60494E-001	0.00000E+000	...........
	46	12.1417	3.60716E-001	3.60382E-001	0.00000E+000	...........
	47	12.4	3.60607E-001	3.60272E-001	0.00000E+000	...........
	48	12.6583	3.60498E-001	3.60158E-001	0.00000E+000	...........
	49	12.9167	3.60390E-001	3.60055E-001	0.00000E+000	...........
	50	13.175	3.60281E-001	3.59965E-001	0.00000E+000	...........
	51	13.4333	3.60173E-001	3.59842E-001	0.00000E+000	...........
	52	13.6917	3.60067E-001	3.59734E-001	0.00000E+000	...........
	53	13.95	3.59961E-001	3.59632E-001	0.00000E+000	...........
	54	14.2083	3.59854E-001	3.59540E-001	0.00000E+000	...........
	55	14.4667	3.59748E-001	3.59425E-001	0.00000E+000	...........
	56	14.725	3.59644E-001	3.59326E-001	0.00000E+000	...........
	57	14.9833	3.59540E-001	3.59211E-001	0.00000E+000	...........
	58	15.2417	3.59435E-001	3.59106E-001	0.00000E+000	...........
	59	15.5	3.59329E-001	3.59004E-001	0.00000E+000	...........
	60	15.7583	3.59223E-001	3.58889E-001	0.00000E+000	...........
	61	16.0167	3.59116E-001	3.58787E-001	0.00000E+000	...........
	62	16.275	3.59009E-001	3.58682E-001	0.00000E+000	...........
	63	16.5333	3.58902E-001	3.58590E-001	0.00000E+000	...........
	64	16.7917	3.58797E-001	3.58487E-001	0.00000E+000	...........
	65	17.05	3.58695E-001	3.58391E-001	0.00000E+000	...........
	66	17.3083	3.58595E-001	3.58314E-001	0.00000E+000	...........
	67	17.5667	3.58499E-001	3.58212E-001	0.00000E+000	...........
	68	17.825	3.58405E-001	3.58123E-001	0.00000E+000	...........
	69	18.0833	3.58313E-001	3.58040E-001	0.00000E+000	...........
	70	18.3417	3.58223E-001	3.57939E-001	0.00000E+000	...........
	71	18.6	3.58132E-001	3.57845E-001	0.00000E+000	...........
	72	18.8583	3.58040E-001	3.57755E-001	0.00000E+000	...........
	73	19.1167	3.57948E-001	3.57663E-001	0.00000E+000	...........
	74	19.375	3.57855E-001	3.57585E-001	0.00000E+000	...........
	75	19.6333	3.57764E-001	3.57490E-001	0.00000E+000	...........
	76	19.8917	3.57675E-001	3.57409E-001	0.00000E+000	...........
EOC	QUANT	0.3576746	Open Circuit (V)
PSTATMODEL	IQUANT	48	Pstat Model
PSTATSECTION	LABEL	IFC1000-06010	Pstat Section
PSTATSERIALNO	LABEL	06010	Pstat Serial Number
CTRLMODE	IQUANT	1	Control Mode
IESTAB	IQUANT	2	I/E Stability
CASPEED	IQUANT	2	Control Amp Speed
CONVENTION	IQUANT	1	Current Convention
ICHRANGE	IQUANT	2	Ich Range
ICHRANGEMODE	TOGGLE	F	Ich Auto Range
ICHOFFSETENABLE	TOGGLE	F	Ich Offset Enable
ICHOFFSET	QUANT	0	Ich Offset (V)
ICHFILTER	IQUANT	3	Ich Filter
VCHRANGE	IQUANT	2	Vch Range
VCHRANGEMODE	TOGGLE	F	Vch Auto Range
VCHOFFSETENABLE	TOGGLE	F	Vch Offset Enable
VCHOFFSET	QUANT	0	Vch Offset (V)
VCHFILTER	IQUANT	3	Vch Filter
IERANGELOWERLIMIT	IQUANT	4	I/E Range Lower Limit
IERANGEMODE	TOGGLE	T	I/E AutoRange
IERANGE	IQUANT	11	I/E Range
ACHSELECT	IQUANT	4	Ach Select
CABLEID	IQUANT	14	Cable ID
DCCALDATE	LABEL	9/18/2014	DC Calibration Date
ACCALDATE	LABEL	9/18/2014	AC Calibration Date
FRAMEWORKVERSION	QUANT	6.25	Framework Version
INSTRUMENTVERSION	LABEL	3.26	Instrument Version
CURVE1	TABLE
	Pt	T	Vf	Im	Vu	Sig	Ach	IERange	Over
	#	s	V vs. Ref.	A	V	V	V	#	bits
	0	0.04	9.99900E-001	6.49409E-005	0.00000E+000	9.99985E-001	0.00000E+000	11	...........
	17	0.72	9.65907E-001	2.81290E-005	0.00000E+000	9.66017E-001	0.00000E+000	8	...........
	34	1.4	9.31889E-001	1.35845E-005	0.00000E+000	9.32000E-001	0.00000E+000	8	...........
	51	2.08	8.97867E-001	4.11698E-006	0.00000E+000	8.97982E-001	0.00000E+000	7	.....h.....
	68	2.76	8.63891E-001	-9.26846E-007	0.00000E+000	8.64015E-001	0.00000E+000	7	.....h.....
	85	3.44	8.29894E-001	-4.21918E-006	0.00000E+000	8.29998E-001	0.00000E+000	7	...........
	102	4.12	7.95920E-001	-6.55830E-006	0.00000E+000	7.95980E-001	0.00000E+000	7	...........
	119	4.8	7.61923E-001	-8.12288E-006	0.00000E+000	7.62013E-001	0.00000E+000	7	....ih.....
	136	5.48	7.27936E-001	-7.57091E-006	0.00000E+000	7.27995E-001	0.00000E+000	8	...........
	153	6.16	6.93957E-001	-9.47878E-006	0.00000E+000	6.93978E-001	0.00000E+000	8	...........
	170	6.84	6.59958E-001	-1.16195E-005	0.00000E+000	6.60011E-001	0.00000E+000	8	...........
	187	7.52	6.25965E-001	-1.38562E-005	0.00000E+000	6.25993E-001	0.00000E+000	8	...........
	204	8.2	5.92009E-001	-1.61582E-005	0.00000E+000	5.92026E-001	0.00000E+000	8	...........
	221	8.88	5.57964E-001	-1.85913E-005	0.00000E+000	5.58008E-001	0.00000E+000	8	...........
	238	9.56	5.23959E-001	-2.15198E-005	0.00000E+000	5.23991E-001	0.00000E+000	8	...........
	255	10.24	4.89998E-001	-2.51663E-005	0.00000E+000	4.90024E-001	0.00000E+000	8	...........
	272	10.92	4.55973E-001	-2.92673E-005	0.00000E+000	4.56006E-001	0.00000E+000	8	...........
	289	11.6	4.21951E-001	-3.41953E-005	0.00000E+000	4.21989E-001	0.00000E+000	8	...........
	306	12.28	3.88013E-001	-3.98052E-005	0.00000E+000	3.88021E-001	0.00000E+000	8	...........
	323	12.96	3.53960E-001	-4.71518E-005	0.00000E+000	3.54004E-001	0.00000E+000	8	...........
	340	13.64	3.19936E-001	-5.69492E-005	0.00000E+000	3.19986E-001	0.00000E+000	8	...........
	357	14.32	2.85997E-001	-7.00391E-005	0.00000E+000	2.86019E-001	0.00000E+000	8	...........
	374	15	2.51965E-001	-8.87591E-005	0.00000E+000	2.52002E-001	0.00000E+000	8	...........
	391	15.68	2.17946E-001	-1.17566E-004	0.00000E+000	2.17984E-001	0.00000E+000	9	...........
	408	16.36	1.83990E-001	-1.66343E-004	0.00000E+000	1.84017E-001	0.00000E+000	9	...........
	425	17.04	1.49950E-001	-2.61502E-004	0.00000E+000	1.49999E-001	0.00000E+000	9	...........
	442	17.72	1.15949E-001	-4.71063E-004	0.00000E+000	1.15982E-001	0.00000E+000	9	...........
	459	18.4	8.19906E-002	-8.68322E-004	0.00000E+000	8.20146E-002	0.00000E+000	9	...........
	476	19.08	4.79402E-002	-1.08643E-003	0.00000E+000	4.79971E-002	0.00000E+000	10	...........
	493	19.76	1.39383E-002	-9.17082E-004	0.00000E+000	1.39797E-002	0.00000E+000	10	...........
	510	20.44	-2.00381E-002	-6.81409E-004	0.00000E+000	-1.99877E-002	0.00000E+000	9	...........
	527	21.12	-5.40706E-002	-4.80968E-004	0.00000E+000	-5.40051E-002	0.00000E+000	9	...........
	544	21.8	-8.80855E-002	-3.44990E-004	0.00000E+000	-8.80225E-002	0.00000E+000	9	...........
	561	22.48	-1.22045E-001	-2.63418E-004	0.00000E+000	-1.21990E-001	0.00000E+000	9	...........
	578	23.16	-1.56069E-001	-2.17555E-004	0.00000E+000	-1.56007E-001	0.00000E+000	9	...........
	595	23.84	-1.90039E-001	-1.86601E-004	0.00000E+000	-1.89975E-001	0.00000E+000	9	...........
	612	24.52	-2.24055E-001	-1.65716E-004	0.00000E+000	-2.23992E-001	0.00000E+000	9	...........
	629	25.2	-2.58096E-001	-1.48081E-004	0.00000E+000	-2.58010E-001	0.00000E+000	9	...........
	646	25.88	-2.92042E-001	-1.37765E-004	0.00000E+000	-2.91977E-001	0.00000E+000	9	...........
	663	26.56	-3.26053E-001	-1.34253E-004	0.00000E+000	-3.25994E-001	0.00000E+000	9	...........
	680	27.24	-3.60094E-001	-1.42592E-004	0.00000E+000	-3.60012E-001	0.00000E+000	9	...........
	697	27.92	-3.94039E-001	-1.70562E-004	0.00000E+000	-3.93979E-001	0.00000E+000	9	...........
	714	28.6	-4.28066E-001	-2.12307E-004	0.00000E+000	-4.27997E-001	0.00000E+000	9	...........
	731	29.28	-4.62109E-001	-2.64821E-004	0.00000E+000	-4.62014E-001	0.00000E+000	9	...........
	748	29.96	-4.96062E-001	-3.15690E-004	0.00000E+000	-4.95981E-001	0.00000E+000	9	...........
	765	30.64	-5.30070E-001	-3.38297E-004	0.00000E+000	-5.29999E-001	0.00000E+000	9	...........
	782	31.32	-5.64126E-001	-3.01373E-004	0.00000E+000	-5.64016E-001	0.00000E+000	9	...........
	799	32	-5.98052E-001	-2.52683E-004	0.00000E+000	-5.97984E-001	0.00000E+000	9	...........
	816	32.68	-6.32075E-001	-3.74463E-004	0.00000E+000	-6.32001E-001	0.00000E+000	9	...........
	833	33.36	-6.66084E-001	-7.90496E-004	0.00000E+000	-6.66019E-001	0.00000E+000	9	...........
	850	34.04	-7.00082E-001	-9.63668E-004	0.00000E+000	-6.99986E-001	0.00000E+000	10	...........
	867	34.72	-7.34103E-001	-9.87701E-004	0.00000E+000	-7.34003E-001	0.00000E+000	10	...........
	884	35.4	-7.68104E-001	-1.18663E-003	0.00000E+000	-7.68021E-001	0.00000E+000	10	...........
	901	36.08	-7.98080E-001	-1.48867E-003	0.00000E+000	-7.97986E-001	0.00000E+000	10	...........
	918	36.76	-7.64099E-001	-4.57359E-004	0.00000E+000	-7.64019E-001	0.00000E+000	9	...........
	935	37.44	-7.30069E-001	-2.50910E-004	0.00000E+000	-7.30001E-001	0.00000E+000	9	...........
	952	38.12	-6.96085E-001	-7.01329E-005	0.00000E+000	-6.95984E-001	0.00000E+000	9	...........
	969	38.8	-6.62084E-001	3.10830E-004	0.00000E+000	-6.62016E-001	0.00000E+000	9	...........
	986	39.48	-6.28085E-001	5.97835E-004	0.00000E+000	-6.27999E-001	0.00000E+000	9	...........
	1003	40.16	-5.94053E-001	4.25478E-004	0.00000E+000	-5.93982E-001	0.00000E+000	9	...........
	1020	40.84	-5.60075E-001	2.81411E-004	0.00000E+000	-5.60014E-001	0.00000E+000	9	...........
	1037	41.52	-5.26056E-001	2.31688E-004	0.00000E+000	-5.25997E-001	0.00000E+000	9	...........
	1054	42.2	-4.92052E-001	2.21225E-004	0.00000E+000	-4.91979E-001	0.00000E+000	9	...........
	1071	42.88	-4.58069E-001	2.13517E-004	0.00000E+000	-4.58012E-001	0.00000E+000	9	...........
	1088	43.56	-4.24058E-001	1.84753E-004	0.00000E+000	-4.23995E-001	0.00000E+000	9	...........
	1105	44.24	-3.90033E-001	1.31956E-004	0.00000E+000	-3.89977E-001	0.00000E+000	9	...........
	1122	44.92	-3.56052E-001	8.18325E-005	0.00000E+000	-3.56010E-001	0.00000E+000	9	...........
	1139	45.6	-3.22056E-001	4.86127E-005	0.00000E+000	-3.21992E-001	0.00000E+000	8	...........
	1156	46.28	-2.88038E-001	3.51429E-005	0.00000E+000	-2.87975E-001	0.00000E+000	8	...........
	1173	46.96	-2.54048E-001	3.09763E-005	0.00000E+000	-2.54008E-001	0.00000E+000	8	...........
	1190	47.64	-2.20031E-001	3.11623E-005	0.00000E+000	-2.19990E-001	0.00000E+000	8	...........
	1207	48.32	-1.86073E-001	3.35065E-005	0.00000E+000	-1.86023E-001	0.00000E+000	8	...........
	1224	49	-1.52031E-001	3.71555E-005	0.00000E+000	-1.52005E-001	0.00000E+000	8	...........
	1241	49.68	-1.18030E-001	4.19915E-005	0.00000E+000	-1.17988E-001	0.00000E+000	8	...........
	1258	50.36	-8.40683E-002	4.70753E-005	0.00000E+000	-8.40205E-002	0.00000E+000	8	...........
	1275	51.04	-5.00515E-002	5.13131E-005	0.00000E+000	-5.00031E-002	0.00000E+000	8	...........
	1292	51.72	-1.60200E-002	5.38326E-005	0.00000E+000	-1.59856E-002	0.00000E+000	8	...........
	1309	52.4	1.79590E-002	5.46403E-005	0.00000E+000	1.79818E-002	0.00000E+000	8	...........
	1326	53.08	5.20063E-002	5.59043E-005	0.00000E+000	5.19992E-002	0.00000E+000	8	...........
	1343	53.76	8.59880E-002	5.93282E-005	0.00000E+000	8.60166E-002	0.00000E+000	8	...........
	1360	54.44	1.19975E-001	6.74175E-005	0.00000E+000	1.19984E-001	0.00000E+000	8	...........
	1377	55.12	1.54030E-001	7.57824E-005	0.00000E+000	1.54001E-001	0.00000E+000	8	...........
	1394	55.8	1.88022E-001	9.43991E-005	0.00000E+000	1.88019E-001	0.00000E+000	9	...........
	1411	56.48	2.22008E-001	1.34923E-004	0.00000E+000	2.21986E-001	0.00000E+000	9	...........
	1428	57.16	2.56014E-001	2.06036E-004	0.00000E+000	2.56004E-001	0.00000E+000	9	...........
	1445	57.84	2.90043E-001	2.82850E-004	0.00000E+000	2.90021E-001	0.00000E+000	9	...........
	1462	58.52	3.24011E-001	3.14660E-004	0.00000E+000	3.23988E-001	0.00000E+000	9	...........
	1479	59.2	3.58020E-001	2.95078E-004	0.00000E+000	3.58006E-001	0.00000E+000	9	...........
	1496	59.88	3.92052E-001	2.70374E-004	0.00000E+000	3.92023E-001	0.00000E+000	9	...........
	1513	60.56	4.26015E-001	2.56622E-004	0.00000E+000	4.25991E-001	0.00000E+000	9	...........
	1530	61.24	4.60041E-001	2.48907E-004	0.00000E+000	4.60008E-001	0.00000E+000	9	...........
	1547	61.92	4.94071E-001	2.43237E-004	0.00000E+000	4.94026E-001	0.00000E+000	9	...........
	1564	62.6	5.28039E-001	2.37569E-004	0.00000E+000	5.27993E-001	0.00000E+000	9	...........
	1581	63.28	5.62056E-001	2.33046E-004	0.00000E+000	5.62010E-001	0.00000E+000	9	...........
	1598	63.96	5.96042E-001	2.29170E-004	0.00000E+000	5.95978E-001	0.00000E+000	9	...........
	1615	64.64	6.30067E-001	2.26533E-004	0.00000E+000	6.29995E-001	0.00000E+000	9	...........
	1632	65.32	6.64081E-001	2.24612E-004	0.00000E+000	6.64013E-001	0.00000E+000	9	...........
	1649	66	6.98074E-001	2.23156E-004	0.00000E+000	6.97980E-001	0.00000E+000	9	...........
	1666	66.68	7.32081E-001	2.22223E-004	0.00000E+000	7.31997E-001	0.00000E+000	9	...........
	1683	67.36	7.66090E-001	2.22031E-004	0.00000E+000	7.66015E-001	0.00000E+000	9	...........
	1700	68.04	8.00076E-001	2.23348E-004	0.00000E+000	7.99982E-001	0.00000E+000	9	...........
	1717	68.72	8.34096E-001	2.27883E-004	0.00000E+000	8.34000E-001	0.00000E+000	9	...........
	1734	69.4	8.68100E-001	2.35776E-004	0.00000E+000	8.68017E-001	0.00000E+000	9	...........
	1751	70.08	9.02092E-001	2.46708E-004	0.00000E+000	9.01985E-001	0.00000E+000	9	...........
	1768	70.76	9.36112E-001	2.60197E-004	0.00000E+000	9.36002E-001	0.00000E+000	9	...........
	1785	71.44	9.70108E-001	2.76706E-004	0.00000E+000	9.70019E-001	0.00000E+000	9	...........
	1800	72.04	1.00010E+000	2.96905E-004	0.00000E+000	9.99985E-001	0.00000E+000	9	...........
CURVE2	TABLE
	Pt	T	Vf	Im	Vu	Sig	Ach	IERange	Over
	#	s	V vs. Ref.	A	V	V	V	#	bits
	1801	72.08	9.98086E-001	2.75611E-004	0.00000E+000	9.97984E-001	0.00000E+000	9	...........
	1818	72.76	9.64115E-001	1.05895E-004	0.00000E+000	9.64016E-001	0.00000E+000	9	...........
	1835	73.44	9.30095E-001	5.05544E-005	0.00000E+000	9.29999E-001	0.00000E+000	8	...........
	1852	74.12	8.96062E-001	2.58619E-005	0.00000E+000	8.95981E-001	0.00000E+000	8	...........
	1869	74.8	8.62112E-001	1.34829E-005	0.00000E+000	8.62014E-001	0.00000E+000	8	...........
[...]
	18091	723.68	8.18066E-001	1.91169E-006	0.00000E+000	8.17991E-001	0.00000E+000	7	.....h.....
	18100	724.04	8.00064E-001	-1.31986E-006	0.00000E+000	7.99982E-001	0.00000E+000	7	.....h.....
	18109	724.4	7.82122E-001	-2.92905E-006	0.00000E+000	7.82023E-001	0.00000E+000	7	...........
	18118	724.76	7.64083E-001	-4.43967E-006	0.00000E+000	7.64014E-001	0.00000E+000	7	...........
	18127	725.12	7.46099E-001	-6.58188E-006	0.00000E+000	7.46005E-001	0.00000E+000	7	...........
	18136	725.48	7.28061E-001	-6.77663E-006	0.00000E+000	7.27995E-001	0.00000E+000	7	...........
	18145	725.84	7.10085E-001	-8.81582E-006	0.00000E+000	7.09986E-001	0.00000E+000	7	....ih.....
	18154	726.2	6.92069E-001	-9.41493E-006	0.00000E+000	6.91977E-001	0.00000E+000	7	....ih.....
	18163	726.56	6.74110E-001	-8.02837E-006	0.00000E+000	6.74018E-001	0.00000E+000	8	...........
	18172	726.92	6.56099E-001	-9.66775E-006	0.00000E+000	6.56009E-001	0.00000E+000	8	...........
	18181	727.28	6.38092E-001	-1.05889E-005	0.00000E+000	6.37999E-001	0.00000E+000	8	...........
	18190	727.64	6.20075E-001	-1.18352E-005	0.00000E+000	6.19990E-001	0.00000E+000	8	...........
	18199	728	6.02050E-001	-1.33220E-005	0.00000E+000	6.01981E-001	0.00000E+000	8	...........
	18208	728.36	5.84089E-001	-1.42369E-005	0.00000E+000	5.84022E-001	0.00000E+000	8	...........
	18217	728.72	5.66103E-001	-1.61544E-005	0.00000E+000	5.66012E-001	0.00000E+000	8	...........
	18226	729.08	5.48063E-001	-1.72251E-005	0.00000E+000	5.48003E-001	0.00000E+000	8	...........
	18235	729.44	5.30057E-001	-1.89390E-005	0.00000E+000	5.29994E-001	0.00000E+000	8	...........
	18244	729.8	5.12017E-001	-2.07649E-005	0.00000E+000	5.11985E-001	0.00000E+000	8	...........
	18253	730.16	4.94083E-001	-2.21326E-005	0.00000E+000	4.94026E-001	0.00000E+000	8	...........
	18262	730.52	4.76081E-001	-2.45609E-005	0.00000E+000	4.76016E-001	0.00000E+000	8	...........
	18271	730.88	4.58038E-001	-2.65169E-005	0.00000E+000	4.58007E-001	0.00000E+000	8	...........
	18280	731.24	4.40058E-001	-2.88984E-005	0.00000E+000	4.39998E-001	0.00000E+000	8	...........
	18289	731.6	4.22022E-001	-3.17989E-005	0.00000E+000	4.21989E-001	0.00000E+000	8	...........
	18298	731.96	4.04038E-001	-3.42510E-005	0.00000E+000	4.03979E-001	0.00000E+000	8	...........
	18307	732.32	3.86069E-001	-3.80283E-005	0.00000E+000	3.86020E-001	0.00000E+000	8	...........
	18316	732.68	3.68039E-001	-4.14916E-005	0.00000E+000	3.68011E-001	0.00000E+000	8	...........
	18325	733.04	3.50021E-001	-4.58319E-005	0.00000E+000	3.50002E-001	0.00000E+000	8	...........
	18334	733.4	3.32024E-001	-5.10872E-005	0.00000E+000	3.31993E-001	0.00000E+000	8	...........
	18343	733.76	3.14001E-001	-5.65169E-005	0.00000E+000	3.13983E-001	0.00000E+000	8	...........
	18352	734.12	2.96061E-001	-6.39856E-005	0.00000E+000	2.96024E-001	0.00000E+000	8	...........
	18361	734.48	2.78050E-001	-7.21198E-005	0.00000E+000	2.78015E-001	0.00000E+000	8	...........
	18370	734.84	2.60056E-001	-8.29673E-005	0.00000E+000	2.60006E-001	0.00000E+000	8	...........
	18379	735.2	2.42018E-001	-9.68877E-005	0.00000E+000	2.41996E-001	0.00000E+000	9	...........
	18388	735.56	2.23998E-001	-1.14078E-004	0.00000E+000	2.23987E-001	0.00000E+000	9	...........
	18397	735.92	2.06014E-001	-1.38154E-004	0.00000E+000	2.05978E-001	0.00000E+000	9	...........
	18406	736.28	1.88031E-001	-1.70415E-004	0.00000E+000	1.88019E-001	0.00000E+000	9	...........
	18415	736.64	1.70034E-001	-2.18074E-004	0.00000E+000	1.70010E-001	0.00000E+000	9	...........
	18424	737	1.51989E-001	-2.89391E-004	0.00000E+000	1.52000E-001	0.00000E+000	9	...........
	18433	737.36	1.33992E-001	-3.97299E-004	0.00000E+000	1.33991E-001	0.00000E+000	9	...........
	18442	737.72	1.16001E-001	-5.54209E-004	0.00000E+000	1.15982E-001	0.00000E+000	9	...........
	18451	738.08	9.80336E-002	-7.37723E-004	0.00000E+000	9.80228E-002	0.00000E+000	9	...........
	18460	738.44	8.00225E-002	-8.78873E-004	0.00000E+000	8.00135E-002	0.00000E+000	9	...........
	18469	738.8	6.20038E-002	-9.10215E-004	0.00000E+000	6.20043E-002	0.00000E+000	10	...........
	18478	739.16	4.39789E-002	-8.56479E-004	0.00000E+000	4.39951E-002	0.00000E+000	10	...........
	18487	739.52	2.60103E-002	-7.67655E-004	0.00000E+000	2.59859E-002	0.00000E+000	9	...........
	18496	739.88	8.01610E-003	-6.68075E-004	0.00000E+000	8.02667E-003	0.00000E+000	9	...........
	18505	740.24	-9.99192E-003	-5.75158E-004	0.00000E+000	-9.98255E-003	0.00000E+000	9	...........
	18514	740.6	-2.80097E-002	-4.88575E-004	0.00000E+000	-2.79918E-002	0.00000E+000	9	...........
	18523	740.96	-4.60073E-002	-4.15111E-004	0.00000E+000	-4.60010E-002	0.00000E+000	9	...........
	18532	741.32	-6.40491E-002	-3.56255E-004	0.00000E+000	-6.40102E-002	0.00000E+000	9	...........
	18541	741.68	-8.20555E-002	-3.10023E-004	0.00000E+000	-8.20194E-002	0.00000E+000	9	...........
	18550	742.04	-1.00006E-001	-2.76733E-004	0.00000E+000	-9.99786E-002	0.00000E+000	9	...........
	18559	742.4	-1.18013E-001	-2.53635E-004	0.00000E+000	-1.17988E-001	0.00000E+000	9	...........
	18568	742.76	-1.36011E-001	-2.36687E-004	0.00000E+000	-1.35997E-001	0.00000E+000	9	...........
	18577	743.12	-1.54049E-001	-2.24688E-004	0.00000E+000	-1.54006E-001	0.00000E+000	9	...........
	18586	743.48	-1.72039E-001	-2.12324E-004	0.00000E+000	-1.72016E-001	0.00000E+000	9	...........
	18595	743.84	-1.90006E-001	-1.99484E-004	0.00000E+000	-1.89975E-001	0.00000E+000	9	...........
	18604	744.2	-2.08015E-001	-1.85490E-004	0.00000E+000	-2.07984E-001	0.00000E+000	9	...........
	18613	744.56	-2.26018E-001	-1.70897E-004	0.00000E+000	-2.25993E-001	0.00000E+000	9	...........
	18622	744.92	-2.44047E-001	-1.57395E-004	0.00000E+000	-2.44002E-001	0.00000E+000	9	...........
	18631	745.28	-2.62057E-001	-1.43550E-004	0.00000E+000	-2.62012E-001	0.00000E+000	9	...........
	18640	745.64	-2.80054E-001	-1.32865E-004	0.00000E+000	-2.80021E-001	0.00000E+000	9	...........
	18649	746	-2.98043E-001	-1.24320E-004	0.00000E+000	-2.97980E-001	0.00000E+000	9	...........
	18658	746.36	-3.16017E-001	-1.18449E-004	0.00000E+000	-3.15989E-001	0.00000E+000	9	...........
	18667	746.72	-3.34051E-001	-1.17365E-004	0.00000E+000	-3.33999E-001	0.00000E+000	9	...........
	18676	747.08	-3.52053E-001	-1.18946E-004	0.00000E+000	-3.52008E-001	0.00000E+000	9	...........
	18685	747.44	-3.70073E-001	-1.28598E-004	0.00000E+000	-3.70017E-001	0.00000E+000	9	...........
	18694	747.8	-3.88030E-001	-1.41447E-004	0.00000E+000	-3.87976E-001	0.00000E+000	9	...........
	18703	748.16	-4.06031E-001	-1.58253E-004	0.00000E+000	-4.05985E-001	0.00000E+000	9	...........
	18712	748.52	-4.24052E-001	-1.79588E-004	0.00000E+000	-4.23995E-001	0.00000E+000	9	...........
	18721	748.88	-4.42045E-001	-2.01990E-004	0.00000E+000	-4.42004E-001	0.00000E+000	9	...........
	18730	749.24	-4.60048E-001	-2.29013E-004	0.00000E+000	-4.60013E-001	0.00000E+000	9	...........
	18739	749.6	-4.78034E-001	-2.49009E-004	0.00000E+000	-4.77972E-001	0.00000E+000	9	...........
	18748	749.96	-4.96042E-001	-2.69440E-004	0.00000E+000	-4.95981E-001	0.00000E+000	9	...........
	18757	750.32	-5.14080E-001	-2.81546E-004	0.00000E+000	-5.13991E-001	0.00000E+000	9	...........
	18766	750.68	-5.32053E-001	-2.76188E-004	0.00000E+000	-5.32000E-001	0.00000E+000	9	...........
	18775	751.04	-5.50056E-001	-2.58717E-004	0.00000E+000	-5.50009E-001	0.00000E+000	9	...........
	18784	751.4	-5.68062E-001	-2.30494E-004	0.00000E+000	-5.68018E-001	0.00000E+000	9	...........
	18793	751.76	-5.86025E-001	-2.06054E-004	0.00000E+000	-5.85978E-001	0.00000E+000	9	...........
	18802	752.12	-6.04063E-001	-1.98690E-004	0.00000E+000	-6.03987E-001	0.00000E+000	9	...........
	18811	752.48	-6.22042E-001	-2.34835E-004	0.00000E+000	-6.21996E-001	0.00000E+000	9	...........
	18820	752.84	-6.40056E-001	-3.64801E-004	0.00000E+000	-6.40005E-001	0.00000E+000	9	...........
	18829	753.2	-6.58076E-001	-5.63523E-004	0.00000E+000	-6.58014E-001	0.00000E+000	9	...........
	18838	753.56	-6.76030E-001	-7.24427E-004	0.00000E+000	-6.75974E-001	0.00000E+000	9	...........
	18847	753.92	-6.94058E-001	-7.96567E-004	0.00000E+000	-6.93983E-001	0.00000E+000	9	...........
	18856	754.28	-7.12044E-001	-8.12024E-004	0.00000E+000	-7.11992E-001	0.00000E+000	9	...........
	18865	754.64	-7.30052E-001	-8.32632E-004	0.00000E+000	-7.30001E-001	0.00000E+000	9	...........
	18874	755	-7.48076E-001	-8.94705E-004	0.00000E+000	-7.48011E-001	0.00000E+000	9	...........
	18883	755.36	-7.66077E-001	-1.02787E-003	0.00000E+000	-7.66020E-001	0.00000E+000	10	...........
	18892	755.72	-7.84059E-001	-1.26498E-003	0.00000E+000	-7.83979E-001	0.00000E+000	10	...........
	18900	756.04	-8.00063E-001	-1.58948E-003	0.00000E+000	-7.99987E-001	0.00000E+000	10	...........