File: CV data/012615_KM_o2 sat_760mmhg.txt
EXPLAIN
TAG	CV
TITLE	LABEL	Cyclic Voltammetry	Test &Identifier
DATE	LABEL	1/26/2015	Date
TIME	LABEL	15:32:04	Time
NOTES	NOTES	1	&Notes...

PSTAT	PSTAT	IFC1000-06010	Potentiostat
VINIT	POTEN	1.00000E+000	F	Initial &E (V)
VLIMIT1	POTEN	-8.00000E-001	F	Scan Limit &1 (V)
VLIMIT2	POTEN	1.00000E+000	F	Scan Limit &2 (V)
VFINAL	POTEN	-8.00000E-001	F	Final &E (V)
SCANRATE	QUANT	4.99999E+001	&Scan Rate (mV/s)
STEPSIZE	QUANT	2.00000E+000	St&ep Size (mV)
CYCLES	IQUANT	10	C&ycles (#)
IMODE	SELECTOR	0	I/E Range &Mode
IRANGE	QUANT	1.00000E+001	&Max Current (mA)
AREA	QUANT	1.00000E+000	Electrode &Area (cm^2)
ELECTRODETYPE	SELECTOR	0	Electrode Type
STRIPPING	TOGGLE	F	Used for Stripping
POLARITY	TOGGLE	F	Signal Polarity
CONDIT	TWOPARAM	F	1.50000E+001	0.00000E+000	Conditionin&g	Time(s)	E(V)
DELAY	TWOPARAM	T	2.00000E+001	0.00000E+000	Init. De&lay	Time(s)	Stab.(mV/s)
EQDELAY	QUANT	5.00000E+000	Equil. &Time (s)
IRCOMP	SELECTOR	1	IRCom&p
PFCOR	QUANT	5.00000E+001	PF Corr. (ohm)
SAMPLINGMODE	SELECTOR	1	Sampling &Mode
OCVCURVE	TABLE	77
	Pt	T	Vf	Vm	Ach	Over
	#	s	V vs. Ref.	V	V	bits
	0	0.258333	3.01495E-001	3.01495E-001	0.00000E+000	...........
	1	0.516667	3.01497E-001	3.01571E-001	0.00000E+000	...........
	2	0.775	3.01506E-001	3.01645E-001	0.00000E+000	...........
	3	1.03333	3.01531E-001	3.01704E-001	0.00000E+000	...........
	4	1.29167	3.01576E-001	3.01788E-001	0.00000E+000	...........
	5	1.55	3.01636E-001	3.01863E-001	0.00000E+000	...........
	6	1.80833	3.01706E-001	3.01939E-001	0.00000E+000	...........
	7	2.06667	3.01780E-001	3.02003E-001	0.00000E+000	...........
	8	2.325	3.01855E-001	3.02086E-001	0.00000E+000	...........
	9	2.58333	3.01929E-001	3.02148E-001	0.00000E+000	...........
	10	2.84167	3.02002E-001	3.02237E-001	0.00000E+000	...........
	11	3.1	3.02076E-001	3.02302E-001	0.00000E+000	...........
	12	3.35833	3.02150E-001	3.02370E-001	0.00000E+000	...........
	13	3.61667	3.02223E-001	3.02446E-001	0.00000E+000	...........
	14	3.875	3.02296E-001	3.02510E-001	0.00000E+000	...........
	15	4.13333	3.02367E-001	3.02588E-001	0.00000E+000	...........
	16	4.39167	3.02437E-001	3.02650E-001	0.00000E+000	...........
	17	4.65	3.02508E-001	3.02731E-001	0.00000E+000	...........
	18	4.90833	3.02579E-001	3.02794E-001	0.00000E+000	...........
	19	5.16667	3.02650E-001	3.02876E-001	0.00000E+000	...........
	20	5.425	3.02722E-001	3.02950E-001	0.00000E+000	...........
	21	5.68333	3.02794E-001	3.03008E-001	0.00000E+000	...........
	22	5.94167	3.02867E-001	3.03093E-001	0.00000E+000	...........
	23	6.2	3.02939E-001	3.03149E-001	0.00000E+000	...........
	24	6.45833	3.03009E-001	3.03222E-001	0.00000E+000	...........
	25	6.71667	3.03079E-001	3.03273E-001	0.00000E+000	...........
	26	6.975	3.03146E-001	3.03352E-001	0.00000E+000	...........
	27	7.23333	3.03211E-001	3.03411E-001	0.00000E+000	...........
	28	7.49167	3.03276E-001	3.03469E-001	0.00000E+000	...........
	29	7.75	3.03341E-001	3.03545E-001	0.00000E+000	...........
	30	8.00833	3.03406E-001	3.03609E-001	0.00000E+000	...........
	31	8.26667	3.03471E-001	3.03677E-001	0.00000E+000	...........
	32	8.525	3.03537E-001	3.03739E-001	0.00000E+000	...........
	33	8.78333	3.03603E-001	3.03798E-001	0.00000E+000	...........
	34	9.04167	3.03669E-001	3.03859E-001	0.00000E+000	...........
	35	9.3	3.03732E-001	3.03928E-001	0.00000E+000	...........
	36	9.5583	3.03795E-001	3.03980E-001	0.00000E+000	...........
	37	9.8167	3.03856E-001	3.04045E-001	0.00000E+000	...........
	38	10.075	3.03918E-001	3.04119E-001	0.00000E+000	...........
	39	10.3333	3.03980E-001	3.04172E-001	0.00000E+000	...........
	40	10.5917	3.04043E-001	3.04231E-001	0.00000E+000	...........
	41	10.85	3.04106E-001	3.04293E-001	0.00000E+000	...........
	42	11.1083	3.04168E-001	3.04353E-001	0.00000E+000	...........
	43	11.3667	3.04228E-001	3.04408E-001	0.00000E+000	...........
	44	11.625	3.04288E-001	3.04474E-001	0.00000E+000	...........
	45	11.8833	3.04347E-001	3.04527E-001	0.00000E+000	...........
	46	12.1417	3.04406E-001	3.04576E-001	0.00000E+000	...........
	47	12.4	3.04464E-001	3.04629E-001	0.00000E+000	...........
	48	12.6583	3.04520E-001	3.04696E-001	0.00000E+000	...........
	49	12.9167	3.04575E-001	3.04744E-001	0.00000E+000	...........
	50	13.175	3.04630E-001	3.04807E-001	0.00000E+000	...........
	51	13.4333	3.04686E-001	3.04855E-001	0.00000E+000	...........
	52	13.6917	3.04742E-001	3.04901E-001	0.00000E+000	...........
	53	13.95	3.04797E-001	3.04963E-001	0.00000E+000	...........
	54	14.2083	3.04850E-001	3.05017E-001	0.00000E+000	...........
	55	14.4667	3.04903E-001	3.05065E-001	0.00000E+000	...........
	56	14.725	3.04956E-001	3.05113E-001	0.00000E+000	...........
	57	14.9833	3.05009E-001	3.05171E-001	0.00000E+000	...........
	58	15.2417	3.05061E-001	3.05234E-001	0.00000E+000	...........
	59	15.5	3.05114E-001	3.05289E-001	0.00000E+000	...........
	60	15.7583	3.05170E-001	3.05346E-001	0.00000E+000	...........
	61	16.0167	3.05227E-001	3.05412E-001	0.00000E+000	...........
	62	16.275	3.05285E-001	3.05475E-001	0.00000E+000	...........
	63	16.5333	3.05345E-001	3.05533E-001	0.00000E+000	...........
	64	16.7917	3.05407E-001	3.05601E-001	0.00000E+000	...........
	65	17.05	3.05469E-001	3.05669E-001	0.00000E+000	...........
	66	17.3083	3.05532E-001	3.05731E-001	0.00000E+000	...........
	67	17.5667	3.05596E-001	3.05797E-001	0.00000E+000	...........
	68	17.825	3.05662E-001	3.05867E-001	0.00000E+000	...........
	69	18.0833	3.05727E-001	3.05930E-001	0.00000E+000	...........
	70	18.3417	3.05793E-001	3.05973E-001	0.00000E+000	...........
	71	18.6	3.05857E-001	3.06029E-001	0.00000E+000	...........
	72	18.8583	3.05916E-001	3.06071E-001	0.00000E+000	...........
	73	19.1167	3.05971E-001	3.06129E-001	0.00000E+000	...........
	74	19.375	3.06022E-001	3.06181E-001	0.00000E+000	...........
	75	19.6333	3.06073E-001	3.06253E-001	0.00000E+000	...........
	76	19.8917	3.06127E-001	3.06300E-001	0.00000E+000	...........
EOC	QUANT	0.3061265	Open Circuit (V)
PSTATMODEL	IQUANT	48	Pstat Model
PSTATSECTION	LABEL	IFC1000-06010	Pstat Section
PSTATSERIALNO	LABEL	06010	Pstat Serial Number
CTRLMODE	IQUANT	1	Control Mode
IESTAB	IQUANT	2	I/E Stability
CASPEED	IQUANT	2	Control Amp Speed
CONVENTION	IQUANT	1	Current Convention
ICHRANGE	IQUANT	2	Ich Range
ICHRANGEMODE	TOGGLE	F	Ich Auto Range
ICHOFFSETENABLE	TOGGLE	F	Ich Offset Enable
ICHOFFSET	QUANT	0	Ich Offset (V)
ICHFILTER	IQUANT	3	Ich Filter
VCHRANGE	IQUANT	2	Vch Range
VCHRANGEMODE	TOGGLE	F	Vch Auto Range
VCHOFFSETENABLE	TOGGLE	F	Vch Offset Enable
VCHOFFSET	QUANT	0	Vch Offset (V)
VCHFILTER	IQUANT	3	Vch Filter
IERANGELOWERLIMIT	IQUANT	4	I/E Range Lower Limit
IERANGEMODE	TOGGLE	T	I/E AutoRange
IERANGE	IQUANT	11	I/E Range
ACHSELECT	IQUANT	4	Ach Select
CABLEID	IQUANT	14	Cable ID
DCCALDATE	LABEL	9/18/2014	DC Calibration Date
ACCALDATE	LABEL	9/18/2014	AC Calibration Date
FRAMEWORKVERSION	QUANT	6.25	Framework Version
INSTRUMENTVERSION	LABEL	3.26	Instrument Version
CURVE1	TABLE
	Pt	T	Vf	Im	Vu	Sig	Ach	IERange	Over
	#	s	V vs. Ref.	A	V	V	V	#	bits
	0	0.04	1.00009E+000	7.84603E-005	0.00000E+000	9.99985E-001	0.00000E+000	11	...........
	17	0.72	9.66101E-001	3.64270E-005	0.00000E+000	9.66017E-001	0.00000E+000	8	...........
	34	1.4	9.32073E-001	1.93480E-005	0.00000E+000	9.32000E-001	0.00000E+000	8	...........
	51	2.08	8.98094E-001	1.05027E-005	0.00000E+000	8.97982E-001	0.00000E+000	8	...........
	68	2.76	8.64065E-001	3.40489E-006	0.00000E+000	8.64015E-001	0.00000E+000	7	.....h.....
	85	3.44	8.30062E-001	-2.31888E-007	0.00000E+000	8.29998E-001	0.00000E+000	7	...........
	102	4.12	7.96063E-001	-2.87154E-006	0.00000E+000	7.95980E-001	0.00000E+000	7	...........
	119	4.8	7.62057E-001	-4.71338E-006	0.00000E+000	7.62013E-001	0.00000E+000	7	...........
	136	5.48	7.28039E-001	-6.91318E-006	0.00000E+000	7.27995E-001	0.00000E+000	7	...........
	153	6.16	6.94074E-001	-7.86825E-006	0.00000E+000	6.93978E-001	0.00000E+000	8	...........
	170	6.84	6.60062E-001	-1.00835E-005	0.00000E+000	6.60011E-001	0.00000E+000	8	...........
	187	7.52	6.26058E-001	-1.23063E-005	0.00000E+000	6.25993E-001	0.00000E+000	8	...........
	204	8.2	5.92091E-001	-1.44763E-005	0.00000E+000	5.92026E-001	0.00000E+000	8	...........
	221	8.88	5.58058E-001	-1.72031E-005	0.00000E+000	5.58008E-001	0.00000E+000	8	...........
	238	9.56	5.24033E-001	-2.05102E-005	0.00000E+000	5.23991E-001	0.00000E+000	8	...........
	255	10.24	4.90078E-001	-2.43085E-005	0.00000E+000	4.90024E-001	0.00000E+000	8	...........
	272	10.92	4.56038E-001	-2.87159E-005	0.00000E+000	4.56006E-001	0.00000E+000	8	...........
	289	11.6	4.22012E-001	-3.38449E-005	0.00000E+000	4.21989E-001	0.00000E+000	8	...........
	306	12.28	3.88067E-001	-4.02393E-005	0.00000E+000	3.88021E-001	0.00000E+000	8	...........
	323	12.96	3.54007E-001	-4.87060E-005	0.00000E+000	3.54004E-001	0.00000E+000	8	...........
	340	13.64	3.19982E-001	-6.00350E-005	0.00000E+000	3.19986E-001	0.00000E+000	8	...........
	357	14.32	2.86039E-001	-7.52246E-005	0.00000E+000	2.86019E-001	0.00000E+000	8	...........
	374	15	2.52003E-001	-9.78944E-005	0.00000E+000	2.52002E-001	0.00000E+000	9	...........
	391	15.68	2.17973E-001	-1.33632E-004	0.00000E+000	2.17984E-001	0.00000E+000	9	...........
	408	16.36	1.84025E-001	-1.96929E-004	0.00000E+000	1.84017E-001	0.00000E+000	9	...........
	425	17.04	1.49987E-001	-3.22886E-004	0.00000E+000	1.49999E-001	0.00000E+000	9	...........
	442	17.72	1.15976E-001	-5.87942E-004	0.00000E+000	1.15982E-001	0.00000E+000	9	...........
	459	18.4	8.20032E-002	-1.02257E-003	0.00000E+000	8.20146E-002	0.00000E+000	10	...........
	476	19.08	4.79757E-002	-1.42092E-003	0.00000E+000	4.79971E-002	0.00000E+000	10	...........
	493	19.76	1.39720E-002	-1.55717E-003	0.00000E+000	1.39797E-002	0.00000E+000	10	...........
	510	20.44	-2.00210E-002	-1.60480E-003	0.00000E+000	-1.99877E-002	0.00000E+000	10	...........
	527	21.12	-5.40497E-002	-1.93942E-003	0.00000E+000	-5.40051E-002	0.00000E+000	10	...........
	544	21.8	-8.80771E-002	-2.46689E-003	0.00000E+000	-8.80225E-002	0.00000E+000	10	...........
	561	22.48	-1.22012E-001	-2.97277E-003	0.00000E+000	-1.21990E-001	0.00000E+000	10	...........
	578	23.16	-1.56063E-001	-3.25814E-003	0.00000E+000	-1.56007E-001	0.00000E+000	10	...........
	595	23.84	-1.90012E-001	-3.27850E-003	0.00000E+000	-1.89975E-001	0.00000E+000	10	...........
	612	24.52	-2.24024E-001	-3.11273E-003	0.00000E+000	-2.23992E-001	0.00000E+000	10	...........
	629	25.2	-2.58084E-001	-2.86735E-003	0.00000E+000	-2.58010E-001	0.00000E+000	10	...........
	646	25.88	-2.92033E-001	-2.63029E-003	0.00000E+000	-2.91977E-001	0.00000E+000	10	...........
	663	26.56	-3.26041E-001	-2.43596E-003	0.00000E+000	-3.25994E-001	0.00000E+000	10	...........
	680	27.24	-3.60084E-001	-2.28269E-003	0.00000E+000	-3.60012E-001	0.00000E+000	10	...........
	697	27.92	-3.94038E-001	-2.16139E-003	0.00000E+000	-3.93979E-001	0.00000E+000	10	...........
	714	28.6	-4.28069E-001	-2.06129E-003	0.00000E+000	-4.27997E-001	0.00000E+000	10	...........
	731	29.28	-4.62099E-001	-1.97964E-003	0.00000E+000	-4.62014E-001	0.00000E+000	10	...........
	748	29.96	-4.96068E-001	-1.91278E-003	0.00000E+000	-4.95981E-001	0.00000E+000	10	...........
	765	30.64	-5.30071E-001	-1.86371E-003	0.00000E+000	-5.29999E-001	0.00000E+000	10	...........
	782	31.32	-5.64116E-001	-1.83534E-003	0.00000E+000	-5.64016E-001	0.00000E+000	10	...........
	799	32	-5.98056E-001	-1.83401E-003	0.00000E+000	-5.97984E-001	0.00000E+000	10	...........
	816	32.68	-6.32076E-001	-1.85035E-003	0.00000E+000	-6.32001E-001	0.00000E+000	10	...........
	833	33.36	-6.66100E-001	-1.85673E-003	0.00000E+000	-6.66019E-001	0.00000E+000	10	...........
	850	34.04	-7.00079E-001	-1.82667E-003	0.00000E+000	-6.99986E-001	0.00000E+000	10	...........
	867	34.72	-7.34098E-001	-1.74113E-003	0.00000E+000	-7.34003E-001	0.00000E+000	10	...........
	884	35.4	-7.68102E-001	-1.65101E-003	0.00000E+000	-7.68021E-001	0.00000E+000	10	...........
	901	36.08	-7.98071E-001	-1.57164E-003	0.00000E+000	-7.97986E-001	0.00000E+000	10	...........
	918	36.76	-7.64109E-001	-1.39359E-003	0.00000E+000	-7.64019E-001	0.00000E+000	10	...........
	935	37.44	-7.30078E-001	-1.33074E-003	0.00000E+000	-7.30001E-001	0.00000E+000	10	...........
	952	38.12	-6.96078E-001	-1.26705E-003	0.00000E+000	-6.95984E-001	0.00000E+000	10	...........
	969	38.8	-6.62079E-001	-1.20395E-003	0.00000E+000	-6.62016E-001	0.00000E+000	10	...........
	986	39.48	-6.28084E-001	-1.15114E-003	0.00000E+000	-6.27999E-001	0.00000E+000	10	...........
	1003	40.16	-5.94053E-001	-1.12725E-003	0.00000E+000	-5.93982E-001	0.00000E+000	10	...........
	1020	40.84	-5.60075E-001	-1.13626E-003	0.00000E+000	-5.60014E-001	0.00000E+000	10	...........
	1037	41.52	-5.26065E-001	-1.13575E-003	0.00000E+000	-5.25997E-001	0.00000E+000	10	...........
	1054	42.2	-4.92063E-001	-1.12462E-003	0.00000E+000	-4.91979E-001	0.00000E+000	10	...........
	1071	42.88	-4.58069E-001	-1.10695E-003	0.00000E+000	-4.58012E-001	0.00000E+000	10	...........
	1088	43.56	-4.24059E-001	-1.07833E-003	0.00000E+000	-4.23995E-001	0.00000E+000	10	...........
	1105	44.24	-3.90035E-001	-1.04484E-003	0.00000E+000	-3.89977E-001	0.00000E+000	10	...........
	1122	44.92	-3.56065E-001	-1.00882E-003	0.00000E+000	-3.56010E-001	0.00000E+000	10	...........
	1139	45.6	-3.22059E-001	-9.68879E-004	0.00000E+000	-3.21992E-001	0.00000E+000	10	...........
	1156	46.28	-2.88044E-001	-9.23278E-004	0.00000E+000	-2.87975E-001	0.00000E+000	10	...........
	1173	46.96	-2.54055E-001	-8.69474E-004	0.00000E+000	-2.54008E-001	0.00000E+000	10	...........
	1190	47.64	-2.20034E-001	-8.02677E-004	0.00000E+000	-2.19990E-001	0.00000E+000	10	...........
	1207	48.32	-1.86078E-001	-7.17691E-004	0.00000E+000	-1.86023E-001	0.00000E+000	9	...........
	1224	49	-1.52017E-001	-6.08209E-004	0.00000E+000	-1.52005E-001	0.00000E+000	9	...........
	1241	49.68	-1.18017E-001	-4.85428E-004	0.00000E+000	-1.17988E-001	0.00000E+000	9	...........
	1258	50.36	-8.40672E-002	-3.56470E-004	0.00000E+000	-8.40205E-002	0.00000E+000	9	...........
	1275	51.04	-5.00287E-002	-2.23718E-004	0.00000E+000	-5.00031E-002	0.00000E+000	9	...........
	1292	51.72	-1.60269E-002	-9.53101E-005	0.00000E+000	-1.59856E-002	0.00000E+000	9	...........
	1309	52.4	1.79636E-002	1.63910E-005	0.00000E+000	1.79818E-002	0.00000E+000	8	...........
	1326	53.08	5.19963E-002	1.03326E-004	0.00000E+000	5.19992E-002	0.00000E+000	9	...........
	1343	53.76	8.59964E-002	1.65042E-004	0.00000E+000	8.60166E-002	0.00000E+000	9	...........
	1360	54.44	1.19959E-001	2.04602E-004	0.00000E+000	1.19984E-001	0.00000E+000	9	...........
	1377	55.12	1.54011E-001	2.21480E-004	0.00000E+000	1.54001E-001	0.00000E+000	9	...........
	1394	55.8	1.88014E-001	2.25564E-004	0.00000E+000	1.88019E-001	0.00000E+000	9	...........
	1411	56.48	2.21991E-001	2.24784E-004	0.00000E+000	2.21986E-001	0.00000E+000	9	...........
	1428	57.16	2.56002E-001	2.23173E-004	0.00000E+000	2.56004E-001	0.00000E+000	9	...........
	1445	57.84	2.90033E-001	2.21459E-004	0.00000E+000	2.90021E-001	0.00000E+000	9	...........
	1462	58.52	3.23998E-001	2.20092E-004	0.00000E+000	3.23988E-001	0.00000E+000	9	...........
	1479	59.2	3.58010E-001	2.18905E-004	0.00000E+000	3.58006E-001	0.00000E+000	9	...........
	1496	59.88	3.92048E-001	2.17737E-004	0.00000E+000	3.92023E-001	0.00000E+000	9	...........
	1513	60.56	4.26012E-001	2.17380E-004	0.00000E+000	4.25991E-001	0.00000E+000	9	...........
	1530	61.24	4.60033E-001	2.15614E-004	0.00000E+000	4.60008E-001	0.00000E+000	9	...........
	1547	61.92	4.94062E-001	2.13970E-004	0.00000E+000	4.94026E-001	0.00000E+000	9	...........
	1564	62.6	5.28041E-001	2.12332E-004	0.00000E+000	5.27993E-001	0.00000E+000	9	...........
	1581	63.28	5.62056E-001	2.10475E-004	0.00000E+000	5.62010E-001	0.00000E+000	9	...........
	1598	63.96	5.96049E-001	2.09346E-004	0.00000E+000	5.95978E-001	0.00000E+000	9	...........
	1615	64.64	6.30073E-001	2.10115E-004	0.00000E+000	6.29995E-001	0.00000E+000	9	...........
	1632	65.32	6.64077E-001	2.12998E-004	0.00000E+000	6.64013E-001	0.00000E+000	9	...........
	1649	66	6.98060E-001	2.19317E-004	0.00000E+000	6.97980E-001	0.00000E+000	9	...........
	1666	66.68	7.32081E-001	2.31783E-004	0.00000E+000	7.31997E-001	0.00000E+000	9	...........
	1683	67.36	7.66075E-001	2.52544E-004	0.00000E+000	7.66015E-001	0.00000E+000	9	...........
	1700	68.04	8.00057E-001	2.83935E-004	0.00000E+000	7.99982E-001	0.00000E+000	9	...........
	1717	68.72	8.34096E-001	3.28441E-004	0.00000E+000	8.34000E-001	0.00000E+000	9	...........
	1734	69.4	8.68100E-001	3.87751E-004	0.00000E+000	8.68017E-001	0.00000E+000	9	...........
	1751	70.08	9.02080E-001	4.60258E-004	0.00000E+000	9.01985E-001	0.00000E+000	9	...........
	1768	70.76	9.36096E-001	5.35642E-004	0.00000E+000	9.36002E-001	0.00000E+000	9	...........
	1785	71.44	9.70106E-001	6.00147E-004	0.00000E+000	9.70019E-001	0.00000E+000	9	...........
	1800	72.04	1.00010E+000	6.52024E-004	0.00000E+000	9.99985E-001	0.00000E+000	9	...........
CURVE2	TABLE
	Pt	T	Vf	Im	Vu	Sig	Ach	IERange	Over
	#	s	V vs. Ref.	A	V	V	V	#	bits
	1801	72.08	9.98076E-001	6.16665E-004	0.00000E+000	9.97984E-001	0.00000E+000	9	...........
	1818	72.76	9.64111E-001	3.13958E-004	0.00000E+000	9.64016E-001	0.00000E+000	9	...........
	1835	73.44	9.30080E-001	1.78717E-004	0.00000E+000	9.29999E-001	0.00000E+000	9	...........
	1852	74.12	8.96063E-001	1.01925E-004	0.00000E+000	8.95981E-001	0.00000E+000	9	...........
	1869	74.8	8.62104E-001	5.66554E-005	0.00000E+000	8.62014E-001	0.00000E+000	8	...........
[...]
	18091	723.68	8.18075E-001	3.36970E-005	0.00000E+000	8.17991E-001	0.00000E+000	8	...........
	18100	724.04	8.00069E-001	2.19468E-005	0.00000E+000	7.99982E-001	0.00000E+000	8	...........
	18109	724.4	7.82110E-001	1.34594E-005	0.00000E+000	7.82023E-001	0.00000E+000	8	...........
	18118	724.76	7.64074E-001	5.01807E-006	0.00000E+000	7.64014E-001	0.00000E+000	7	.....h.....
	18127	725.12	7.46085E-001	-1.90465E-007	0.00000E+000	7.46005E-001	0.00000E+000	7	...........
	18136	725.48	7.28052E-001	-4.10674E-006	0.00000E+000	7.27995E-001	0.00000E+000	7	...........
	18145	725.84	7.10074E-001	-8.07686E-006	0.00000E+000	7.09986E-001	0.00000E+000	7	...........
	18154	726.2	6.92049E-001	-9.80979E-006	0.00000E+000	6.91977E-001	0.00000E+000	8	...........
	18163	726.56	6.74108E-001	-1.23445E-005	0.00000E+000	6.74018E-001	0.00000E+000	8	...........
	18172	726.92	6.56076E-001	-1.46156E-005	0.00000E+000	6.56009E-001	0.00000E+000	8	...........
	18181	727.28	6.38078E-001	-1.58857E-005	0.00000E+000	6.37999E-001	0.00000E+000	8	...........
	18190	727.64	6.20068E-001	-1.73175E-005	0.00000E+000	6.19990E-001	0.00000E+000	8	...........
	18199	728	6.02046E-001	-1.80546E-005	0.00000E+000	6.01981E-001	0.00000E+000	8	...........
	18208	728.36	5.84085E-001	-1.84102E-005	0.00000E+000	5.84022E-001	0.00000E+000	8	...........
	18217	728.72	5.66096E-001	-1.87201E-005	0.00000E+000	5.66012E-001	0.00000E+000	8	...........
	18226	729.08	5.48072E-001	-1.85201E-005	0.00000E+000	5.48003E-001	0.00000E+000	8	...........
	18235	729.44	5.30061E-001	-1.88666E-005	0.00000E+000	5.29994E-001	0.00000E+000	8	...........
	18244	729.8	5.12027E-001	-1.92195E-005	0.00000E+000	5.11985E-001	0.00000E+000	8	...........
	18253	730.16	4.94086E-001	-1.98267E-005	0.00000E+000	4.94026E-001	0.00000E+000	8	...........
	18262	730.52	4.76078E-001	-2.06491E-005	0.00000E+000	4.76016E-001	0.00000E+000	8	...........
	18271	730.88	4.58024E-001	-2.13521E-005	0.00000E+000	4.58007E-001	0.00000E+000	8	...........
	18280	731.24	4.40033E-001	-2.26668E-005	0.00000E+000	4.39998E-001	0.00000E+000	8	...........
	18289	731.6	4.22026E-001	-2.37989E-005	0.00000E+000	4.21989E-001	0.00000E+000	8	...........
	18298	731.96	4.04029E-001	-2.52958E-005	0.00000E+000	4.03979E-001	0.00000E+000	8	...........
	18307	732.32	3.86062E-001	-2.69485E-005	0.00000E+000	3.86020E-001	0.00000E+000	8	...........
	18316	732.68	3.68041E-001	-2.85641E-005	0.00000E+000	3.68011E-001	0.00000E+000	8	...........
	18325	733.04	3.50034E-001	-3.07894E-005	0.00000E+000	3.50002E-001	0.00000E+000	8	...........
	18334	733.4	3.32019E-001	-3.26670E-005	0.00000E+000	3.31993E-001	0.00000E+000	8	...........
	18343	733.76	3.13993E-001	-3.50481E-005	0.00000E+000	3.13983E-001	0.00000E+000	8	...........
	18352	734.12	2.96051E-001	-3.76377E-005	0.00000E+000	2.96024E-001	0.00000E+000	8	...........
	18361	734.48	2.78042E-001	-4.03083E-005	0.00000E+000	2.78015E-001	0.00000E+000	8	...........
	18370	734.84	2.60046E-001	-4.38545E-005	0.00000E+000	2.60006E-001	0.00000E+000	8	...........
	18379	735.2	2.42017E-001	-4.72654E-005	0.00000E+000	2.41996E-001	0.00000E+000	8	...........
	18388	735.56	2.23996E-001	-5.16998E-005	0.00000E+000	2.23987E-001	0.00000E+000	8	...........
	18397	735.92	2.06008E-001	-5.67698E-005	0.00000E+000	2.05978E-001	0.00000E+000	8	...........
	18406	736.28	1.88025E-001	-6.24667E-005	0.00000E+000	1.88019E-001	0.00000E+000	8	...........
	18415	736.64	1.70040E-001	-7.01376E-005	0.00000E+000	1.70010E-001	0.00000E+000	8	...........
	18424	737	1.51991E-001	-7.90033E-005	0.00000E+000	1.52000E-001	0.00000E+000	8	...........
	18433	737.36	1.33986E-001	-9.10995E-005	0.00000E+000	1.33991E-001	0.00000E+000	9	...........
	18442	737.72	1.15984E-001	-1.06163E-004	0.00000E+000	1.15982E-001	0.00000E+000	9	...........
	18451	738.08	9.80255E-002	-1.25154E-004	0.00000E+000	9.80228E-002	0.00000E+000	9	...........
	18460	738.44	8.00035E-002	-1.49272E-004	0.00000E+000	8.00135E-002	0.00000E+000	9	...........
	18469	738.8	6.19934E-002	-1.76375E-004	0.00000E+000	6.20043E-002	0.00000E+000	9	...........
	18478	739.16	4.39758E-002	-2.06410E-004	0.00000E+000	4.39951E-002	0.00000E+000	9	...........
	18487	739.52	2.60060E-002	-2.40552E-004	0.00000E+000	2.59859E-002	0.00000E+000	9	...........
	18496	739.88	8.01756E-003	-2.86379E-004	0.00000E+000	8.02667E-003	0.00000E+000	9	...........
	18505	740.24	-9.98337E-003	-3.55786E-004	0.00000E+000	-9.98255E-003	0.00000E+000	9	...........
	18514	740.6	-2.80079E-002	-4.56684E-004	0.00000E+000	-2.79918E-002	0.00000E+000	9	...........
	18523	740.96	-4.60090E-002	-6.02643E-004	0.00000E+000	-4.60010E-002	0.00000E+000	9	...........
	18532	741.32	-6.40502E-002	-8.09847E-004	0.00000E+000	-6.40102E-002	0.00000E+000	9	...........
	18541	741.68	-8.20649E-002	-1.08649E-003	0.00000E+000	-8.20194E-002	0.00000E+000	10	...........
	18550	742.04	-1.00014E-001	-1.43839E-003	0.00000E+000	-9.99786E-002	0.00000E+000	10	...........
	18559	742.4	-1.18018E-001	-1.84582E-003	0.00000E+000	-1.17988E-001	0.00000E+000	10	...........
	18568	742.76	-1.36020E-001	-2.26306E-003	0.00000E+000	-1.35997E-001	0.00000E+000	10	...........
	18577	743.12	-1.54055E-001	-2.62341E-003	0.00000E+000	-1.54006E-001	0.00000E+000	10	...........
	18586	743.48	-1.72043E-001	-2.86197E-003	0.00000E+000	-1.72016E-001	0.00000E+000	10	...........
	18595	743.84	-1.90011E-001	-2.94132E-003	0.00000E+000	-1.89975E-001	0.00000E+000	10	...........
	18604	744.2	-2.08025E-001	-2.87390E-003	0.00000E+000	-2.07984E-001	0.00000E+000	10	...........
	18613	744.56	-2.26022E-001	-2.71113E-003	0.00000E+000	-2.25993E-001	0.00000E+000	10	...........
	18622	744.92	-2.44054E-001	-2.51512E-003	0.00000E+000	-2.44002E-001	0.00000E+000	10	...........
	18631	745.28	-2.62065E-001	-2.33085E-003	0.00000E+000	-2.62012E-001	0.00000E+000	10	...........
	18640	745.64	-2.80048E-001	-2.17394E-003	0.00000E+000	-2.80021E-001	0.00000E+000	10	...........
	18649	746	-2.98033E-001	-2.04475E-003	0.00000E+000	-2.97980E-001	0.00000E+000	10	...........
	18658	746.36	-3.16020E-001	-1.94144E-003	0.00000E+000	-3.15989E-001	0.00000E+000	10	...........
	18667	746.72	-3.34060E-001	-1.85599E-003	0.00000E+000	-3.33999E-001	0.00000E+000	10	...........
	18676	747.08	-3.52050E-001	-1.78469E-003	0.00000E+000	-3.52008E-001	0.00000E+000	10	...........
	18685	747.44	-3.70067E-001	-1.72336E-003	0.00000E+000	-3.70017E-001	0.00000E+000	10	...........
	18694	747.8	-3.88028E-001	-1.66685E-003	0.00000E+000	-3.87976E-001	0.00000E+000	10	...........
	18703	748.16	-4.06029E-001	-1.61820E-003	0.00000E+000	-4.05985E-001	0.00000E+000	10	...........
	18712	748.52	-4.24058E-001	-1.57502E-003	0.00000E+000	-4.23995E-001	0.00000E+000	10	...........
	18721	748.88	-4.42062E-001	-1.53902E-003	0.00000E+000	-4.42004E-001	0.00000E+000	10	...........
	18730	749.24	-4.60064E-001	-1.50834E-003	0.00000E+000	-4.60013E-001	0.00000E+000	10	...........
	18739	749.6	-4.78036E-001	-1.48155E-003	0.00000E+000	-4.77972E-001	0.00000E+000	10	...........
	18748	749.96	-4.96059E-001	-1.46117E-003	0.00000E+000	-4.95981E-001	0.00000E+000	10	...........
	18757	750.32	-5.14081E-001	-1.44410E-003	0.00000E+000	-5.13991E-001	0.00000E+000	10	...........
	18766	750.68	-5.32054E-001	-1.43193E-003	0.00000E+000	-5.32000E-001	0.00000E+000	10	...........
	18775	751.04	-5.50056E-001	-1.42587E-003	0.00000E+000	-5.50009E-001	0.00000E+000	10	...........
	18784	751.4	-5.68078E-001	-1.42485E-003	0.00000E+000	-5.68018E-001	0.00000E+000	10	...........
	18793	751.76	-5.86021E-001	-1.43433E-003	0.00000E+000	-5.85978E-001	0.00000E+000	10	...........
	18802	752.12	-6.04063E-001	-1.44982E-003	0.00000E+000	-6.03987E-001	0.00000E+000	10	...........
	18811	752.48	-6.22064E-001	-1.46574E-003	0.00000E+000	-6.21996E-001	0.00000E+000	10	...........
	18820	752.84	-6.40064E-001	-1.47505E-003	0.00000E+000	-6.40005E-001	0.00000E+000	10	...........
	18829	753.2	-6.58076E-001	-1.47495E-003	0.00000E+000	-6.58014E-001	0.00000E+000	10	...........
	18838	753.56	-6.76055E-001	-1.46850E-003	0.00000E+000	-6.75974E-001	0.00000E+000	10	...........
	18847	753.92	-6.94076E-001	-1.45008E-003	0.00000E+000	-6.93983E-001	0.00000E+000	10	...........
	18856	754.28	-7.12067E-001	-1.42145E-003	0.00000E+000	-7.11992E-001	0.00000E+000	10	...........
	18865	754.64	-7.30068E-001	-1.37908E-003	0.00000E+000	-7.30001E-001	0.00000E+000	10	...........
	18874	755	-7.48090E-001	-1.33215E-003	0.00000E+000	-7.48011E-001	0.00000E+000	10	...........
	18883	755.36	-7.66087E-001	-1.29359E-003	0.00000E+000	-7.66020E-001	0.00000E+000	10	...........
	18892	755.72	-7.84071E-001	-1.27725E-003	0.00000E+000	-7.83979E-001	0.00000E+000	10	...........
	18900	756.04	-8.00069E-001	-1.30740E-003	0.00000E+000	-7.99987E-001	0.00000E+000	10	...........