File: CV data/012615_KM_baseline_160mmhg.txt
EXPLAIN
TAG	CV
TITLE	LABEL	Cyclic Voltammetry	Test &Identifier
DATE	LABEL	1/26/2015	Date
TIME	LABEL	14:47:29	Time
NOTES	NOTES	1	&Notes...

PSTAT	PSTAT	IFC1000-06010	Potentiostat
VINIT	POTEN	1.00000E+000	F	Initial &E (V)
VLIMIT1	POTEN	-8.00000E-001	F	Scan Limit &1 (V)
VLIMIT2	POTEN	1.00000E+000	F	Scan Limit &2 (V)
VFINAL	POTEN	-8.00000E-001	F	Final &E (V)
SCANRATE	QUANT	4.99999E+001	&Scan Rate (mV/s)
STEPSIZE	QUANT	2.00000E+000	St&ep Size (mV)
CYCLES	IQUANT	10	C&ycles (#)
IMODE	SELECTOR	0	I/E Range &Mode
IRANGE	QUANT	1.00000E+001	&Max Current (mA)
AREA	QUANT	1.00000E+000	Electrode &Area (cm^2)
ELECTRODETYPE	SELECTOR	0	Electrode Type
STRIPPING	TOGGLE	F	Used for Stripping
POLARITY	TOGGLE	F	Signal Polarity
CONDIT	TWOPARAM	F	1.50000E+001	0.00000E+000	Conditionin&g	Time(s)	E(V)
DELAY	TWOPARAM	T	2.00000E+001	0.00000E+000	Init. De&lay	Time(s)	Stab.(mV/s)
EQDELAY	QUANT	5.00000E+000	Equil. &Time (s)
IRCOMP	SELECTOR	1	IRCom&p
PFCOR	QUANT	5.00000E+001	PF Corr. (ohm)
SAMPLINGMODE	SELECTOR	1	Sampling &Mode
OCVCURVE	TABLE	77
	Pt	T	Vf	Vm	Ach	Over
	#	s	V vs. Ref.	V	V	bits
	0	0.258333	2.15269E-001	2.15269E-001	0.00000E+000	...........
	1	0.516667	2.15279E-001	2.15767E-001	0.00000E+000	...........
	2	0.775	2.15337E-001	2.16260E-001	0.00000E+000	...........
	3	1.03333	2.15505E-001	2.16742E-001	0.00000E+000	...........
	4	1.29167	2.15809E-001	2.17215E-001	0.00000E+000	...........
	5	1.55	2.16220E-001	2.17688E-001	0.00000E+000	...........
	6	1.80833	2.16685E-001	2.18155E-001	0.00000E+000	...........
	7	2.06667	2.17165E-001	2.18616E-001	0.00000E+000	...........
	8	2.325	2.17643E-001	2.19072E-001	0.00000E+000	...........
	9	2.58333	2.18113E-001	2.19520E-001	0.00000E+000	...........
	10	2.84167	2.18576E-001	2.19961E-001	0.00000E+000	...........
	11	3.1	2.19032E-001	2.20398E-001	0.00000E+000	...........
	12	3.35833	2.19481E-001	2.20830E-001	0.00000E+000	...........
	13	3.61667	2.19923E-001	2.21262E-001	0.00000E+000	...........
	14	3.875	2.20361E-001	2.21685E-001	0.00000E+000	...........
	15	4.13333	2.20795E-001	2.22099E-001	0.00000E+000	...........
	16	4.39167	2.21223E-001	2.22512E-001	0.00000E+000	...........
	17	4.65	2.21647E-001	2.22924E-001	0.00000E+000	...........
	18	4.90833	2.22065E-001	2.23327E-001	0.00000E+000	...........
	19	5.16667	2.22478E-001	2.23728E-001	0.00000E+000	...........
	20	5.425	2.22888E-001	2.24124E-001	0.00000E+000	...........
	21	5.68333	2.23293E-001	2.24511E-001	0.00000E+000	...........
	22	5.94167	2.23693E-001	2.24896E-001	0.00000E+000	...........
	23	6.2	2.24088E-001	2.25277E-001	0.00000E+000	...........
	24	6.45833	2.24478E-001	2.25661E-001	0.00000E+000	...........
	25	6.71667	2.24864E-001	2.26034E-001	0.00000E+000	...........
	26	6.975	2.25247E-001	2.26402E-001	0.00000E+000	...........
	27	7.23333	2.25626E-001	2.26769E-001	0.00000E+000	...........
	28	7.49167	2.26001E-001	2.27130E-001	0.00000E+000	...........
	29	7.75	2.26371E-001	2.27489E-001	0.00000E+000	...........
	30	8.00833	2.26737E-001	2.27846E-001	0.00000E+000	...........
	31	8.26667	2.27100E-001	2.28200E-001	0.00000E+000	...........
	32	8.525	2.27459E-001	2.28549E-001	0.00000E+000	...........
	33	8.78333	2.27816E-001	2.28894E-001	0.00000E+000	...........
	34	9.04167	2.28169E-001	2.29233E-001	0.00000E+000	...........
	35	9.3	2.28518E-001	2.29572E-001	0.00000E+000	...........
	36	9.5583	2.28864E-001	2.29904E-001	0.00000E+000	...........
	37	9.8167	2.29205E-001	2.30235E-001	0.00000E+000	...........
	38	10.075	2.29543E-001	2.30566E-001	0.00000E+000	...........
	39	10.3333	2.29877E-001	2.30892E-001	0.00000E+000	...........
	40	10.5917	2.30209E-001	2.31215E-001	0.00000E+000	...........
	41	10.85	2.30538E-001	2.31534E-001	0.00000E+000	...........
	42	11.1083	2.30864E-001	2.31855E-001	0.00000E+000	...........
	43	11.3667	2.31188E-001	2.32165E-001	0.00000E+000	...........
	44	11.625	2.31508E-001	2.32473E-001	0.00000E+000	...........
	45	11.8833	2.31825E-001	2.32782E-001	0.00000E+000	...........
	46	12.1417	2.32138E-001	2.33087E-001	0.00000E+000	...........
	47	12.4	2.32448E-001	2.33389E-001	0.00000E+000	...........
	48	12.6583	2.32756E-001	2.33690E-001	0.00000E+000	...........
	49	12.9167	2.33061E-001	2.33990E-001	0.00000E+000	...........
	50	13.175	2.33364E-001	2.34282E-001	0.00000E+000	...........
	51	13.4333	2.33665E-001	2.34575E-001	0.00000E+000	...........
	52	13.6917	2.33963E-001	2.34863E-001	0.00000E+000	...........
	53	13.95	2.34258E-001	2.35149E-001	0.00000E+000	...........
	54	14.2083	2.34550E-001	2.35430E-001	0.00000E+000	...........
	55	14.4667	2.34838E-001	2.35715E-001	0.00000E+000	...........
	56	14.725	2.35125E-001	2.35997E-001	0.00000E+000	...........
	57	14.9833	2.35409E-001	2.36272E-001	0.00000E+000	...........
	58	15.2417	2.35691E-001	2.36550E-001	0.00000E+000	...........
	59	15.5	2.35972E-001	2.36820E-001	0.00000E+000	...........
	60	15.7583	2.36250E-001	2.37096E-001	0.00000E+000	...........
	61	16.0167	2.36526E-001	2.37364E-001	0.00000E+000	...........
	62	16.275	2.36799E-001	2.37632E-001	0.00000E+000	...........
	63	16.5333	2.37072E-001	2.37900E-001	0.00000E+000	...........
	64	16.7917	2.37342E-001	2.38158E-001	0.00000E+000	...........
	65	17.05	2.37610E-001	2.38422E-001	0.00000E+000	...........
	66	17.3083	2.37875E-001	2.38675E-001	0.00000E+000	...........
	67	17.5667	2.38138E-001	2.38930E-001	0.00000E+000	...........
	68	17.825	2.38398E-001	2.39188E-001	0.00000E+000	...........
	69	18.0833	2.38655E-001	2.39437E-001	0.00000E+000	...........
	70	18.3417	2.38911E-001	2.39686E-001	0.00000E+000	...........
	71	18.6	2.39164E-001	2.39933E-001	0.00000E+000	...........
	72	18.8583	2.39416E-001	2.40181E-001	0.00000E+000	...........
	73	19.1167	2.39665E-001	2.40427E-001	0.00000E+000	...........
	74	19.375	2.39914E-001	2.40670E-001	0.00000E+000	...........
	75	19.6333	2.40161E-001	2.40918E-001	0.00000E+000	...........
	76	19.8917	2.40407E-001	2.41156E-001	0.00000E+000	...........
EOC	QUANT	0.2404069	Open Circuit (V)
PSTATMODEL	IQUANT	48	Pstat Model
PSTATSECTION	LABEL	IFC1000-06010	Pstat Section
PSTATSERIALNO	LABEL	06010	Pstat Serial Number
CTRLMODE	IQUANT	1	Control Mode
IESTAB	IQUANT	2	I/E Stability
CASPEED	IQUANT	2	Control Amp Speed
CONVENTION	IQUANT	1	Current Convention
ICHRANGE	IQUANT	2	Ich Range
ICHRANGEMODE	TOGGLE	F	Ich Auto Range
ICHOFFSETENABLE	TOGGLE	F	Ich Offset Enable
ICHOFFSET	QUANT	0	Ich Offset (V)
ICHFILTER	IQUANT	3	Ich Filter
VCHRANGE	IQUANT	2	Vch Range
VCHRANGEMODE	TOGGLE	F	Vch Auto Range
VCHOFFSETENABLE	TOGGLE	F	Vch Offset Enable
VCHOFFSET	QUANT	0	Vch Offset (V)
VCHFILTER	IQUANT	3	Vch Filter
IERANGELOWERLIMIT	IQUANT	4	I/E Range Lower Limit
IERANGEMODE	TOGGLE	T	I/E AutoRange
IERANGE	IQUANT	11	I/E Range
ACHSELECT	IQUANT	4	Ach Select
CABLEID	IQUANT	14	Cable ID
DCCALDATE	LABEL	9/18/2014	DC Calibration Date
ACCALDATE	LABEL	9/18/2014	AC Calibration Date
FRAMEWORKVERSION	QUANT	6.25	Framework Version
INSTRUMENTVERSION	LABEL	3.26	Instrument Version
CURVE1	TABLE
	Pt	T	Vf	Im	Vu	Sig	Ach	IERange	Over
	#	s	V vs. Ref.	A	V	V	V	#	bits
	0	0.04	1.00018E+000	1.35778E-004	0.00000E+000	9.99985E-001	0.00000E+000	11	...........
	17	0.72	9.66176E-001	7.46014E-005	0.00000E+000	9.66017E-001	0.00000E+000	8	...........
	34	1.4	9.32151E-001	4.31936E-005	0.00000E+000	9.32000E-001	0.00000E+000	8	...........
	51	2.08	8.98183E-001	2.50303E-005	0.00000E+000	8.97982E-001	0.00000E+000	8	...........
	68	2.76	8.64172E-001	1.39965E-005	0.00000E+000	8.64015E-001	0.00000E+000	8	...........
	85	3.44	8.30158E-001	6.73700E-006	0.00000E+000	8.29998E-001	0.00000E+000	8	...........
	102	4.12	7.96086E-001	-2.13902E-006	0.00000E+000	7.95980E-001	0.00000E+000	7	.....h.....
	119	4.8	7.62100E-001	-5.59645E-006	0.00000E+000	7.62013E-001	0.00000E+000	7	....ih..i..
	136	5.48	7.28128E-001	-5.41678E-006	0.00000E+000	7.27995E-001	0.00000E+000	8	...........
	153	6.16	6.94120E-001	-9.02534E-006	0.00000E+000	6.93978E-001	0.00000E+000	7	....ih..i..
	170	6.84	6.60174E-001	-1.00087E-005	0.00000E+000	6.60011E-001	0.00000E+000	8	...........
	187	7.52	6.26135E-001	-1.26958E-005	0.00000E+000	6.25993E-001	0.00000E+000	8	...........
	204	8.2	5.92188E-001	-1.52123E-005	0.00000E+000	5.92026E-001	0.00000E+000	8	...........
	221	8.88	5.58142E-001	-1.75756E-005	0.00000E+000	5.58008E-001	0.00000E+000	8	...........
	238	9.56	5.24123E-001	-2.01393E-005	0.00000E+000	5.23991E-001	0.00000E+000	8	...........
	255	10.24	4.90167E-001	-2.32123E-005	0.00000E+000	4.90024E-001	0.00000E+000	8	...........
	272	10.92	4.56132E-001	-2.74213E-005	0.00000E+000	4.56006E-001	0.00000E+000	8	...........
	289	11.6	4.22099E-001	-3.23179E-005	0.00000E+000	4.21989E-001	0.00000E+000	8	...........
	306	12.28	3.88160E-001	-3.77713E-005	0.00000E+000	3.88021E-001	0.00000E+000	8	...........
	323	12.96	3.54112E-001	-4.50492E-005	0.00000E+000	3.54004E-001	0.00000E+000	8	...........
	340	13.64	3.20083E-001	-5.46907E-005	0.00000E+000	3.19986E-001	0.00000E+000	8	...........
	357	14.32	2.86141E-001	-6.81286E-005	0.00000E+000	2.86019E-001	0.00000E+000	8	...........
	374	15	2.52106E-001	-8.71313E-005	0.00000E+000	2.52002E-001	0.00000E+000	8	...........
	391	15.68	2.18109E-001	-1.16893E-004	0.00000E+000	2.17984E-001	0.00000E+000	9	...........
	408	16.36	1.84126E-001	-1.67178E-004	0.00000E+000	1.84017E-001	0.00000E+000	9	...........
	425	17.04	1.50080E-001	-2.61238E-004	0.00000E+000	1.49999E-001	0.00000E+000	9	...........
	442	17.72	1.16082E-001	-4.41108E-004	0.00000E+000	1.15982E-001	0.00000E+000	9	...........
	459	18.4	8.21235E-002	-7.11225E-004	0.00000E+000	8.20146E-002	0.00000E+000	9	...........
	476	19.08	4.80740E-002	-8.89436E-004	0.00000E+000	4.79971E-002	0.00000E+000	10	...........
	493	19.76	1.40722E-002	-8.85166E-004	0.00000E+000	1.39797E-002	0.00000E+000	10	...........
	510	20.44	-1.99152E-002	-8.62158E-004	0.00000E+000	-1.99877E-002	0.00000E+000	10	...........
	527	21.12	-5.39466E-002	-8.93137E-004	0.00000E+000	-5.40051E-002	0.00000E+000	10	...........
	544	21.8	-8.79566E-002	-9.48651E-004	0.00000E+000	-8.80225E-002	0.00000E+000	10	...........
	561	22.48	-1.21918E-001	-9.74792E-004	0.00000E+000	-1.21990E-001	0.00000E+000	10	...........
	578	23.16	-1.55954E-001	-9.53874E-004	0.00000E+000	-1.56007E-001	0.00000E+000	10	...........
	595	23.84	-1.89906E-001	-9.00558E-004	0.00000E+000	-1.89975E-001	0.00000E+000	10	...........
	612	24.52	-2.23917E-001	-8.33388E-004	0.00000E+000	-2.23992E-001	0.00000E+000	10	...........
	629	25.2	-2.57961E-001	-7.68390E-004	0.00000E+000	-2.58010E-001	0.00000E+000	9	...........
	646	25.88	-2.91917E-001	-7.09384E-004	0.00000E+000	-2.91977E-001	0.00000E+000	9	...........
	663	26.56	-3.25919E-001	-6.59483E-004	0.00000E+000	-3.25994E-001	0.00000E+000	9	...........
	680	27.24	-3.59976E-001	-6.19977E-004	0.00000E+000	-3.60012E-001	0.00000E+000	9	...........
	697	27.92	-3.93921E-001	-5.89879E-004	0.00000E+000	-3.93979E-001	0.00000E+000	9	...........
	714	28.6	-4.27944E-001	-5.71643E-004	0.00000E+000	-4.27997E-001	0.00000E+000	9	...........
	731	29.28	-4.61972E-001	-5.66610E-004	0.00000E+000	-4.62014E-001	0.00000E+000	9	...........
	748	29.96	-4.95937E-001	-5.75869E-004	0.00000E+000	-4.95981E-001	0.00000E+000	9	...........
	765	30.64	-5.29933E-001	-6.02600E-004	0.00000E+000	-5.29999E-001	0.00000E+000	9	...........
	782	31.32	-5.63978E-001	-6.38627E-004	0.00000E+000	-5.64016E-001	0.00000E+000	9	...........
	799	32	-5.97928E-001	-6.58895E-004	0.00000E+000	-5.97984E-001	0.00000E+000	9	...........
	816	32.68	-6.31947E-001	-6.52816E-004	0.00000E+000	-6.32001E-001	0.00000E+000	9	...........
	833	33.36	-6.65964E-001	-6.06273E-004	0.00000E+000	-6.66019E-001	0.00000E+000	9	...........
	850	34.04	-6.99951E-001	-5.72040E-004	0.00000E+000	-6.99986E-001	0.00000E+000	9	...........
	867	34.72	-7.33970E-001	-5.69873E-004	0.00000E+000	-7.34003E-001	0.00000E+000	9	...........
	884	35.4	-7.67964E-001	-7.80335E-004	0.00000E+000	-7.68021E-001	0.00000E+000	9	...........
	901	36.08	-7.97945E-001	-1.16643E-003	0.00000E+000	-7.97986E-001	0.00000E+000	10	...........
	918	36.76	-7.63978E-001	-2.61861E-004	0.00000E+000	-7.64019E-001	0.00000E+000	9	...........
	935	37.44	-7.29956E-001	-2.24293E-004	0.00000E+000	-7.30001E-001	0.00000E+000	9	...........
	952	38.12	-6.95944E-001	-2.64402E-004	0.00000E+000	-6.95984E-001	0.00000E+000	9	...........
	969	38.8	-6.61958E-001	-2.72904E-004	0.00000E+000	-6.62016E-001	0.00000E+000	9	...........
	986	39.48	-6.27963E-001	-2.56402E-004	0.00000E+000	-6.27999E-001	0.00000E+000	9	...........
	1003	40.16	-5.93927E-001	-2.24276E-004	0.00000E+000	-5.93982E-001	0.00000E+000	9	...........
	1020	40.84	-5.59947E-001	-1.96876E-004	0.00000E+000	-5.60014E-001	0.00000E+000	9	...........
	1037	41.52	-5.25942E-001	-1.84560E-004	0.00000E+000	-5.25997E-001	0.00000E+000	9	...........
	1054	42.2	-4.91941E-001	-1.91296E-004	0.00000E+000	-4.91979E-001	0.00000E+000	9	...........
	1071	42.88	-4.57956E-001	-2.18400E-004	0.00000E+000	-4.58012E-001	0.00000E+000	9	...........
	1088	43.56	-4.23950E-001	-2.49578E-004	0.00000E+000	-4.23995E-001	0.00000E+000	9	...........
	1105	44.24	-3.89930E-001	-2.72909E-004	0.00000E+000	-3.89977E-001	0.00000E+000	9	...........
	1122	44.92	-3.55948E-001	-2.75671E-004	0.00000E+000	-3.56010E-001	0.00000E+000	9	...........
	1139	45.6	-3.21942E-001	-2.66670E-004	0.00000E+000	-3.21992E-001	0.00000E+000	9	...........
	1156	46.28	-2.87939E-001	-2.53454E-004	0.00000E+000	-2.87975E-001	0.00000E+000	9	...........
	1173	46.96	-2.53950E-001	-2.38595E-004	0.00000E+000	-2.54008E-001	0.00000E+000	9	...........
	1190	47.64	-2.19922E-001	-2.21563E-004	0.00000E+000	-2.19990E-001	0.00000E+000	9	...........
	1207	48.32	-1.85968E-001	-2.02191E-004	0.00000E+000	-1.86023E-001	0.00000E+000	9	...........
	1224	49	-1.51927E-001	-1.79974E-004	0.00000E+000	-1.52005E-001	0.00000E+000	9	...........
	1241	49.68	-1.17924E-001	-1.54989E-004	0.00000E+000	-1.17988E-001	0.00000E+000	9	...........
	1258	50.36	-8.39729E-002	-1.28977E-004	0.00000E+000	-8.40205E-002	0.00000E+000	9	...........
	1275	51.04	-4.99230E-002	-1.02134E-004	0.00000E+000	-5.00031E-002	0.00000E+000	9	...........
	1292	51.72	-1.59191E-002	-7.38485E-005	0.00000E+000	-1.59856E-002	0.00000E+000	8	...........
	1309	52.4	1.80656E-002	-4.43209E-005	0.00000E+000	1.79818E-002	0.00000E+000	8	...........
	1326	53.08	5.20974E-002	-1.36505E-005	0.00000E+000	5.19992E-002	0.00000E+000	8	...........
	1343	53.76	8.60894E-002	1.76808E-005	0.00000E+000	8.60166E-002	0.00000E+000	8	...........
	1360	54.44	1.20058E-001	5.16003E-005	0.00000E+000	1.19984E-001	0.00000E+000	8	...........
	1377	55.12	1.54108E-001	8.78965E-005	0.00000E+000	1.54001E-001	0.00000E+000	8	...........
	1394	55.8	1.88110E-001	1.30623E-004	0.00000E+000	1.88019E-001	0.00000E+000	9	...........
	1411	56.48	2.22084E-001	1.78469E-004	0.00000E+000	2.21986E-001	0.00000E+000	9	...........
	1428	57.16	2.56095E-001	2.21387E-004	0.00000E+000	2.56004E-001	0.00000E+000	9	...........
	1445	57.84	2.90133E-001	2.44068E-004	0.00000E+000	2.90021E-001	0.00000E+000	9	...........
	1462	58.52	3.24090E-001	2.45820E-004	0.00000E+000	3.23988E-001	0.00000E+000	9	...........
	1479	59.2	3.58088E-001	2.41040E-004	0.00000E+000	3.58006E-001	0.00000E+000	9	...........
	1496	59.88	3.92123E-001	2.36779E-004	0.00000E+000	3.92023E-001	0.00000E+000	9	...........
	1513	60.56	4.26098E-001	2.32907E-004	0.00000E+000	4.25991E-001	0.00000E+000	9	...........
	1530	61.24	4.60114E-001	2.28544E-004	0.00000E+000	4.60008E-001	0.00000E+000	9	...........
	1547	61.92	4.94142E-001	2.23718E-004	0.00000E+000	4.94026E-001	0.00000E+000	9	...........
	1564	62.6	5.28122E-001	2.19558E-004	0.00000E+000	5.27993E-001	0.00000E+000	9	...........
	1581	63.28	5.62117E-001	2.16244E-004	0.00000E+000	5.62010E-001	0.00000E+000	9	...........
	1598	63.96	5.96121E-001	2.13192E-004	0.00000E+000	5.95978E-001	0.00000E+000	9	...........
	1615	64.64	6.30142E-001	2.11320E-004	0.00000E+000	6.29995E-001	0.00000E+000	9	...........
	1632	65.32	6.64147E-001	2.10670E-004	0.00000E+000	6.64013E-001	0.00000E+000	9	...........
	1649	66	6.98147E-001	2.11461E-004	0.00000E+000	6.97980E-001	0.00000E+000	9	...........
	1666	66.68	7.32149E-001	2.14730E-004	0.00000E+000	7.31997E-001	0.00000E+000	9	...........
	1683	67.36	7.66151E-001	2.21965E-004	0.00000E+000	7.66015E-001	0.00000E+000	9	...........
	1700	68.04	8.00137E-001	2.34486E-004	0.00000E+000	7.99982E-001	0.00000E+000	9	...........
	1717	68.72	8.34162E-001	2.54160E-004	0.00000E+000	8.34000E-001	0.00000E+000	9	...........
	1734	69.4	8.68161E-001	2.80167E-004	0.00000E+000	8.68017E-001	0.00000E+000	9	...........
	1751	70.08	9.02153E-001	3.11111E-004	0.00000E+000	9.01985E-001	0.00000E+000	9	...........
	1768	70.76	9.36180E-001	3.45667E-004	0.00000E+000	9.36002E-001	0.00000E+000	9	...........
	1785	71.44	9.70168E-001	3.82771E-004	0.00000E+000	9.70019E-001	0.00000E+000	9	...........
	1800	72.04	1.00017E+000	4.18699E-004	0.00000E+000	9.99985E-001	0.00000E+000	9	...........
CURVE2	TABLE
	Pt	T	Vf	Im	Vu	Sig	Ach	IERange	Over
	#	s	V vs. Ref.	A	V	V	V	#	bits
	1801	72.08	9.98154E-001	3.93169E-004	0.00000E+000	9.97984E-001	0.00000E+000	9	...........
	1818	72.76	9.64168E-001	1.74088E-004	0.00000E+000	9.64016E-001	0.00000E+000	9	...........
	1835	73.44	9.30148E-001	9.00364E-005	0.00000E+000	9.29999E-001	0.00000E+000	9	...........
	1852	74.12	8.96130E-001	4.90732E-005	0.00000E+000	8.95981E-001	0.00000E+000	8	...........
	1869	74.8	8.62179E-001	2.65827E-005	0.00000E+000	8.62014E-001	0.00000E+000	8	...........
[...]
	18091	723.68	8.18105E-001	9.51504E-006	0.00000E+000	8.17991E-001	0.00000E+000	8	...........
	18100	724.04	8.00099E-001	5.04419E-006	0.00000E+000	7.99982E-001	0.00000E+000	8	...........
	18109	724.4	7.82095E-001	-1.47679E-006	0.00000E+000	7.82023E-001	0.00000E+000	7	.....h.....
	18118	724.76	7.64067E-001	-4.62974E-006	0.00000E+000	7.64014E-001	0.00000E+000	7	.....h.....
	18127	725.12	7.46085E-001	-6.42311E-006	0.00000E+000	7.46005E-001	0.00000E+000	7	....ih.....
	18136	725.48	7.28089E-001	-4.36773E-006	0.00000E+000	7.27995E-001	0.00000E+000	8	...........
	18145	725.84	7.10071E-001	-9.01443E-006	0.00000E+000	7.09986E-001	0.00000E+000	7	....ih..i..
	18154	726.2	6.92081E-001	-7.56650E-006	0.00000E+000	6.91977E-001	0.00000E+000	8	...........
	18163	726.56	6.74130E-001	-8.90295E-006	0.00000E+000	6.74018E-001	0.00000E+000	8	...........
	18172	726.92	6.56116E-001	-1.04864E-005	0.00000E+000	6.56009E-001	0.00000E+000	8	...........
	18181	727.28	6.38115E-001	-1.16229E-005	0.00000E+000	6.37999E-001	0.00000E+000	8	...........
	18190	727.64	6.20096E-001	-1.32869E-005	0.00000E+000	6.19990E-001	0.00000E+000	8	...........
	18199	728	6.02072E-001	-1.43175E-005	0.00000E+000	6.01981E-001	0.00000E+000	8	...........
	18208	728.36	5.84123E-001	-1.55882E-005	0.00000E+000	5.84022E-001	0.00000E+000	8	...........
	18217	728.72	5.66116E-001	-1.71275E-005	0.00000E+000	5.66012E-001	0.00000E+000	8	...........
	18226	729.08	5.48087E-001	-1.79776E-005	0.00000E+000	5.48003E-001	0.00000E+000	8	...........
	18235	729.44	5.30076E-001	-1.98726E-005	0.00000E+000	5.29994E-001	0.00000E+000	8	...........
	18244	729.8	5.12055E-001	-2.10256E-005	0.00000E+000	5.11985E-001	0.00000E+000	8	...........
	18253	730.16	4.94104E-001	-2.24784E-005	0.00000E+000	4.94026E-001	0.00000E+000	8	...........
	18262	730.52	4.76100E-001	-2.45497E-005	0.00000E+000	4.76016E-001	0.00000E+000	8	...........
	18271	730.88	4.58065E-001	-2.60246E-005	0.00000E+000	4.58007E-001	0.00000E+000	8	...........
	18280	731.24	4.40076E-001	-2.83519E-005	0.00000E+000	4.39998E-001	0.00000E+000	8	...........
	18289	731.6	4.22056E-001	-3.03699E-005	0.00000E+000	4.21989E-001	0.00000E+000	8	...........
	18298	731.96	4.04060E-001	-3.29420E-005	0.00000E+000	4.03979E-001	0.00000E+000	8	...........
	18307	732.32	3.86097E-001	-3.58759E-005	0.00000E+000	3.86020E-001	0.00000E+000	8	...........
	18316	732.68	3.68062E-001	-3.85111E-005	0.00000E+000	3.68011E-001	0.00000E+000	8	...........
	18325	733.04	3.50062E-001	-4.25116E-005	0.00000E+000	3.50002E-001	0.00000E+000	8	...........
	18334	733.4	3.32055E-001	-4.62056E-005	0.00000E+000	3.31993E-001	0.00000E+000	8	...........
	18343	733.76	3.14029E-001	-5.08536E-005	0.00000E+000	3.13983E-001	0.00000E+000	8	...........
	18352	734.12	2.96086E-001	-5.62542E-005	0.00000E+000	2.96024E-001	0.00000E+000	8	...........
	18361	734.48	2.78076E-001	-6.24638E-005	0.00000E+000	2.78015E-001	0.00000E+000	8	...........
	18370	734.84	2.60087E-001	-7.07184E-005	0.00000E+000	2.60006E-001	0.00000E+000	8	...........
	18379	735.2	2.42051E-001	-7.99427E-005	0.00000E+000	2.41996E-001	0.00000E+000	8	...........
	18388	735.56	2.24022E-001	-9.23907E-005	0.00000E+000	2.23987E-001	0.00000E+000	9	...........
	18397	735.92	2.06036E-001	-1.08326E-004	0.00000E+000	2.05978E-001	0.00000E+000	9	...........
	18406	736.28	1.88064E-001	-1.28748E-004	0.00000E+000	1.88019E-001	0.00000E+000	9	...........
	18415	736.64	1.70059E-001	-1.57831E-004	0.00000E+000	1.70010E-001	0.00000E+000	9	...........
	18424	737	1.52019E-001	-1.98061E-004	0.00000E+000	1.52000E-001	0.00000E+000	9	...........
	18433	737.36	1.34023E-001	-2.56692E-004	0.00000E+000	1.33991E-001	0.00000E+000	9	...........
	18442	737.72	1.16020E-001	-3.39568E-004	0.00000E+000	1.15982E-001	0.00000E+000	9	...........
	18451	738.08	9.80620E-002	-4.47144E-004	0.00000E+000	9.80228E-002	0.00000E+000	9	...........
	18460	738.44	8.00519E-002	-5.68440E-004	0.00000E+000	8.00135E-002	0.00000E+000	9	...........
	18469	738.8	6.20489E-002	-6.69075E-004	0.00000E+000	6.20043E-002	0.00000E+000	9	...........
	18478	739.16	4.40215E-002	-7.24393E-004	0.00000E+000	4.39951E-002	0.00000E+000	9	...........
	18487	739.52	2.60387E-002	-7.38498E-004	0.00000E+000	2.59859E-002	0.00000E+000	9	...........
	18496	739.88	8.05823E-003	-7.37363E-004	0.00000E+000	8.02667E-003	0.00000E+000	9	...........
	18505	740.24	-9.96855E-003	-7.44642E-004	0.00000E+000	-9.98255E-003	0.00000E+000	9	...........
	18514	740.6	-2.79814E-002	-7.64863E-004	0.00000E+000	-2.79918E-002	0.00000E+000	9	...........
	18523	740.96	-4.59842E-002	-8.01782E-004	0.00000E+000	-4.60010E-002	0.00000E+000	9	...........
	18532	741.32	-6.40012E-002	-8.46846E-004	0.00000E+000	-6.40102E-002	0.00000E+000	9	...........
	18541	741.68	-8.20144E-002	-8.89212E-004	0.00000E+000	-8.20194E-002	0.00000E+000	9	...........
	18550	742.04	-9.99702E-002	-9.18909E-004	0.00000E+000	-9.99786E-002	0.00000E+000	10	...........
	18559	742.4	-1.17977E-001	-9.32698E-004	0.00000E+000	-1.17988E-001	0.00000E+000	10	...........
	18568	742.76	-1.35990E-001	-9.30258E-004	0.00000E+000	-1.35997E-001	0.00000E+000	10	...........
	18577	743.12	-1.54032E-001	-9.14719E-004	0.00000E+000	-1.54006E-001	0.00000E+000	10	...........
	18586	743.48	-1.72015E-001	-8.89831E-004	0.00000E+000	-1.72016E-001	0.00000E+000	10	...........
	18595	743.84	-1.89975E-001	-8.58334E-004	0.00000E+000	-1.89975E-001	0.00000E+000	10	...........
	18604	744.2	-2.07988E-001	-8.22366E-004	0.00000E+000	-2.07984E-001	0.00000E+000	10	...........
	18613	744.56	-2.25976E-001	-7.87636E-004	0.00000E+000	-2.25993E-001	0.00000E+000	9	...........
	18622	744.92	-2.44008E-001	-7.52378E-004	0.00000E+000	-2.44002E-001	0.00000E+000	9	...........
	18631	745.28	-2.62020E-001	-7.18715E-004	0.00000E+000	-2.62012E-001	0.00000E+000	9	...........
	18640	745.64	-2.80011E-001	-6.87838E-004	0.00000E+000	-2.80021E-001	0.00000E+000	9	...........
	18649	746	-2.97998E-001	-6.57494E-004	0.00000E+000	-2.97980E-001	0.00000E+000	9	...........
	18658	746.36	-3.15991E-001	-6.29209E-004	0.00000E+000	-3.15989E-001	0.00000E+000	9	...........
	18667	746.72	-3.34016E-001	-6.04751E-004	0.00000E+000	-3.33999E-001	0.00000E+000	9	...........
	18676	747.08	-3.51999E-001	-5.82540E-004	0.00000E+000	-3.52008E-001	0.00000E+000	9	...........
	18685	747.44	-3.70011E-001	-5.65803E-004	0.00000E+000	-3.70017E-001	0.00000E+000	9	...........
	18694	747.8	-3.87990E-001	-5.51397E-004	0.00000E+000	-3.87976E-001	0.00000E+000	9	...........
	18703	748.16	-4.05985E-001	-5.40339E-004	0.00000E+000	-4.05985E-001	0.00000E+000	9	...........
	18712	748.52	-4.24014E-001	-5.32883E-004	0.00000E+000	-4.23995E-001	0.00000E+000	9	...........
	18721	748.88	-4.42007E-001	-5.28019E-004	0.00000E+000	-4.42004E-001	0.00000E+000	9	...........
	18730	749.24	-4.60018E-001	-5.28315E-004	0.00000E+000	-4.60013E-001	0.00000E+000	9	...........
	18739	749.6	-4.77994E-001	-5.32752E-004	0.00000E+000	-4.77972E-001	0.00000E+000	9	...........
	18748	749.96	-4.96008E-001	-5.38582E-004	0.00000E+000	-4.95981E-001	0.00000E+000	9	...........
	18757	750.32	-5.14036E-001	-5.48468E-004	0.00000E+000	-5.13991E-001	0.00000E+000	9	...........
	18766	750.68	-5.32017E-001	-5.64064E-004	0.00000E+000	-5.32000E-001	0.00000E+000	9	...........
	18775	751.04	-5.50007E-001	-5.83919E-004	0.00000E+000	-5.50009E-001	0.00000E+000	9	...........
	18784	751.4	-5.68034E-001	-5.99030E-004	0.00000E+000	-5.68018E-001	0.00000E+000	9	...........
	18793	751.76	-5.85987E-001	-6.12750E-004	0.00000E+000	-5.85978E-001	0.00000E+000	9	...........
	18802	752.12	-6.04015E-001	-6.19664E-004	0.00000E+000	-6.03987E-001	0.00000E+000	9	...........
	18811	752.48	-6.22016E-001	-6.18328E-004	0.00000E+000	-6.21996E-001	0.00000E+000	9	...........
	18820	752.84	-6.40012E-001	-6.10204E-004	0.00000E+000	-6.40005E-001	0.00000E+000	9	...........
	18829	753.2	-6.58044E-001	-5.84674E-004	0.00000E+000	-6.58014E-001	0.00000E+000	9	...........
	18838	753.56	-6.75998E-001	-5.56232E-004	0.00000E+000	-6.75974E-001	0.00000E+000	9	...........
	18847	753.92	-6.94028E-001	-5.38777E-004	0.00000E+000	-6.93983E-001	0.00000E+000	9	...........
	18856	754.28	-7.12018E-001	-5.22421E-004	0.00000E+000	-7.11992E-001	0.00000E+000	9	...........
	18865	754.64	-7.30023E-001	-5.22841E-004	0.00000E+000	-7.30001E-001	0.00000E+000	9	...........
	18874	755	-7.48044E-001	-5.60669E-004	0.00000E+000	-7.48011E-001	0.00000E+000	9	...........
	18883	755.36	-7.66042E-001	-6.91296E-004	0.00000E+000	-7.66020E-001	0.00000E+000	9	...........
	18892	755.72	-7.84023E-001	-9.53783E-004	0.00000E+000	-7.83979E-001	0.00000E+000	10	...........
	18900	756.04	-8.00031E-001	-1.31753E-003	0.00000E+000	-7.99987E-001	0.00000E+000	10	...........