File: CV data/012615_KM_baseline2_160mmhg.txt
EXPLAIN
TAG	CV
TITLE	LABEL	Cyclic Voltammetry	Test &Identifier
DATE	LABEL	1/26/2015	Date
TIME	LABEL	15:48:15	Time
NOTES	NOTES	1	&Notes...

PSTAT	PSTAT	IFC1000-06010	Potentiostat
VINIT	POTEN	1.00000E+000	F	Initial &E (V)
VLIMIT1	POTEN	-8.00000E-001	F	Scan Limit &1 (V)
VLIMIT2	POTEN	1.00000E+000	F	Scan Limit &2 (V)
VFINAL	POTEN	-8.00000E-001	F	Final &E (V)
SCANRATE	QUANT	4.99999E+001	&Scan Rate (mV/s)
STEPSIZE	QUANT	2.00000E+000	St&ep Size (mV)
CYCLES	IQUANT	6	C&ycles (#)
IMODE	SELECTOR	0	I/E Range &Mode
IRANGE	QUANT	1.00000E+001	&Max Current (mA)
AREA	QUANT	1.00000E+000	Electrode &Area (cm^2)
ELECTRODETYPE	SELECTOR	0	Electrode Type
STRIPPING	TOGGLE	F	Used for Stripping
POLARITY	TOGGLE	F	Signal Polarity
CONDIT	TWOPARAM	F	1.50000E+001	0.00000E+000	Conditionin&g	Time(s)	E(V)
DELAY	TWOPARAM	T	2.00000E+001	0.00000E+000	Init. De&lay	Time(s)	Stab.(mV/s)
EQDELAY	QUANT	5.00000E+000	Equil. &Time (s)
IRCOMP	SELECTOR	1	IRCom&p
PFCOR	QUANT	5.00000E+001	PF Corr. (ohm)
SAMPLINGMODE	SELECTOR	1	Sampling &Mode
OCVCURVE	TABLE	77
	Pt	T	Vf	Vm	Ach	Over
	#	s	V vs. Ref.	V	V	bits
	0	0.258333	2.94492E-001	2.94492E-001	0.00000E+000	...........
	1	0.516667	2.94493E-001	2.94513E-001	0.00000E+000	...........
	2	0.775	2.94495E-001	2.94536E-001	0.00000E+000	...........
	3	1.03333	2.94503E-001	2.94558E-001	0.00000E+000	...........
	4	1.29167	2.94516E-001	2.94586E-001	0.00000E+000	...........
	5	1.55	2.94535E-001	2.94608E-001	0.00000E+000	...........
	6	1.80833	2.94558E-001	2.94638E-001	0.00000E+000	...........
	7	2.06667	2.94582E-001	2.94649E-001	0.00000E+000	...........
	8	2.325	2.94607E-001	2.94681E-001	0.00000E+000	...........
	9	2.58333	2.94630E-001	2.94704E-001	0.00000E+000	...........
	10	2.84167	2.94654E-001	2.94738E-001	0.00000E+000	...........
	11	3.1	2.94679E-001	2.94752E-001	0.00000E+000	...........
	12	3.35833	2.94704E-001	2.94780E-001	0.00000E+000	...........
	13	3.61667	2.94730E-001	2.94818E-001	0.00000E+000	...........
	14	3.875	2.94755E-001	2.94842E-001	0.00000E+000	...........
	15	4.13333	2.94783E-001	2.94872E-001	0.00000E+000	...........
	16	4.39167	2.94811E-001	2.94906E-001	0.00000E+000	...........
	17	4.65	2.94841E-001	2.94929E-001	0.00000E+000	...........
	18	4.90833	2.94871E-001	2.94958E-001	0.00000E+000	...........
	19	5.16667	2.94900E-001	2.94976E-001	0.00000E+000	...........
	20	5.425	2.94927E-001	2.95008E-001	0.00000E+000	...........
	21	5.68333	2.94953E-001	2.95029E-001	0.00000E+000	...........
	22	5.94167	2.94978E-001	2.95053E-001	0.00000E+000	...........
	23	6.2	2.95003E-001	2.95078E-001	0.00000E+000	...........
	24	6.45833	2.95028E-001	2.95101E-001	0.00000E+000	...........
	25	6.71667	2.95052E-001	2.95124E-001	0.00000E+000	...........
	26	6.975	2.95075E-001	2.95147E-001	0.00000E+000	...........
	27	7.23333	2.95099E-001	2.95176E-001	0.00000E+000	...........
	28	7.49167	2.95123E-001	2.95197E-001	0.00000E+000	...........
	29	7.75	2.95147E-001	2.95231E-001	0.00000E+000	...........
	30	8.00833	2.95172E-001	2.95249E-001	0.00000E+000	...........
	31	8.26667	2.95198E-001	2.95274E-001	0.00000E+000	...........
	32	8.525	2.95223E-001	2.95300E-001	0.00000E+000	...........
	33	8.78333	2.95248E-001	2.95318E-001	0.00000E+000	...........
	34	9.04167	2.95272E-001	2.95348E-001	0.00000E+000	...........
	35	9.3	2.95296E-001	2.95361E-001	0.00000E+000	...........
	36	9.5583	2.95319E-001	2.95392E-001	0.00000E+000	...........
	37	9.8167	2.95342E-001	2.95427E-001	0.00000E+000	...........
	38	10.075	2.95366E-001	2.95450E-001	0.00000E+000	...........
	39	10.3333	2.95393E-001	2.95483E-001	0.00000E+000	...........
	40	10.5917	2.95421E-001	2.95500E-001	0.00000E+000	...........
	41	10.85	2.95449E-001	2.95535E-001	0.00000E+000	...........
	42	11.1083	2.95476E-001	2.95559E-001	0.00000E+000	...........
	43	11.3667	2.95503E-001	2.95577E-001	0.00000E+000	...........
	44	11.625	2.95529E-001	2.95596E-001	0.00000E+000	...........
	45	11.8833	2.95553E-001	2.95620E-001	0.00000E+000	...........
	46	12.1417	2.95575E-001	2.95631E-001	0.00000E+000	...........
	47	12.4	2.95595E-001	2.95653E-001	0.00000E+000	...........
	48	12.6583	2.95615E-001	2.95677E-001	0.00000E+000	...........
	49	12.9167	2.95634E-001	2.95702E-001	0.00000E+000	...........
	50	13.175	2.95654E-001	2.95722E-001	0.00000E+000	...........
	51	13.4333	2.95676E-001	2.95748E-001	0.00000E+000	...........
	52	13.6917	2.95699E-001	2.95769E-001	0.00000E+000	...........
	53	13.95	2.95722E-001	2.95794E-001	0.00000E+000	...........
	54	14.2083	2.95745E-001	2.95824E-001	0.00000E+000	...........
	55	14.4667	2.95769E-001	2.95842E-001	0.00000E+000	...........
	56	14.725	2.95794E-001	2.95870E-001	0.00000E+000	...........
	57	14.9833	2.95819E-001	2.95898E-001	0.00000E+000	...........
	58	15.2417	2.95843E-001	2.95920E-001	0.00000E+000	...........
	59	15.5	2.95869E-001	2.95945E-001	0.00000E+000	...........
	60	15.7583	2.95894E-001	2.95971E-001	0.00000E+000	...........
	61	16.0167	2.95919E-001	2.95994E-001	0.00000E+000	...........
	62	16.275	2.95944E-001	2.96020E-001	0.00000E+000	...........
	63	16.5333	2.95968E-001	2.96041E-001	0.00000E+000	...........
	64	16.7917	2.95993E-001	2.96063E-001	0.00000E+000	...........
	65	17.05	2.96016E-001	2.96089E-001	0.00000E+000	...........
	66	17.3083	2.96040E-001	2.96115E-001	0.00000E+000	...........
	67	17.5667	2.96063E-001	2.96135E-001	0.00000E+000	...........
	68	17.825	2.96087E-001	2.96157E-001	0.00000E+000	...........
	69	18.0833	2.96111E-001	2.96186E-001	0.00000E+000	...........
	70	18.3417	2.96134E-001	2.96214E-001	0.00000E+000	...........
	71	18.6	2.96159E-001	2.96234E-001	0.00000E+000	...........
	72	18.8583	2.96183E-001	2.96248E-001	0.00000E+000	...........
	73	19.1167	2.96207E-001	2.96272E-001	0.00000E+000	...........
	74	19.375	2.96229E-001	2.96307E-001	0.00000E+000	...........
	75	19.6333	2.96251E-001	2.96323E-001	0.00000E+000	...........
	76	19.8917	2.96275E-001	2.96349E-001	0.00000E+000	...........
EOC	QUANT	0.2962747	Open Circuit (V)
PSTATMODEL	IQUANT	48	Pstat Model
PSTATSECTION	LABEL	IFC1000-06010	Pstat Section
PSTATSERIALNO	LABEL	06010	Pstat Serial Number
CTRLMODE	IQUANT	1	Control Mode
IESTAB	IQUANT	2	I/E Stability
CASPEED	IQUANT	2	Control Amp Speed
CONVENTION	IQUANT	1	Current Convention
ICHRANGE	IQUANT	2	Ich Range
ICHRANGEMODE	TOGGLE	F	Ich Auto Range
ICHOFFSETENABLE	TOGGLE	F	Ich Offset Enable
ICHOFFSET	QUANT	0	Ich Offset (V)
ICHFILTER	IQUANT	3	Ich Filter
VCHRANGE	IQUANT	2	Vch Range
VCHRANGEMODE	TOGGLE	F	Vch Auto Range
VCHOFFSETENABLE	TOGGLE	F	Vch Offset Enable
VCHOFFSET	QUANT	0	Vch Offset (V)
VCHFILTER	IQUANT	3	Vch Filter
IERANGELOWERLIMIT	IQUANT	4	I/E Range Lower Limit
IERANGEMODE	TOGGLE	T	I/E AutoRange
IERANGE	IQUANT	11	I/E Range
ACHSELECT	IQUANT	4	Ach Select
CABLEID	IQUANT	14	Cable ID
DCCALDATE	LABEL	9/18/2014	DC Calibration Date
ACCALDATE	LABEL	9/18/2014	AC Calibration Date
FRAMEWORKVERSION	QUANT	6.25	Framework Version
INSTRUMENTVERSION	LABEL	3.26	Instrument Version
CURVE1	TABLE
	Pt	T	Vf	Im	Vu	Sig	Ach	IERange	Over
	#	s	V vs. Ref.	A	V	V	V	#	bits
	0	0.04	1.00012E+000	1.01041E-004	0.00000E+000	9.99985E-001	0.00000E+000	11	...........
	17	0.72	9.66114E-001	4.75150E-005	0.00000E+000	9.66017E-001	0.00000E+000	8	...........
	34	1.4	9.32087E-001	2.42641E-005	0.00000E+000	9.32000E-001	0.00000E+000	8	...........
	51	2.08	8.98099E-001	1.19269E-005	0.00000E+000	8.97982E-001	0.00000E+000	8	...........
	68	2.76	8.64055E-001	1.30644E-006	0.00000E+000	8.64015E-001	0.00000E+000	7	.....h.....
	85	3.44	8.30051E-001	-3.47638E-006	0.00000E+000	8.29998E-001	0.00000E+000	7	.....h.....
	102	4.12	7.96039E-001	-6.92821E-006	0.00000E+000	7.95980E-001	0.00000E+000	7	....ih.....
	119	4.8	7.62062E-001	-8.95800E-006	0.00000E+000	7.62013E-001	0.00000E+000	7	....ih..i..
	136	5.48	7.28067E-001	-7.73953E-006	0.00000E+000	7.27995E-001	0.00000E+000	8	...........
	153	6.16	6.94083E-001	-9.68174E-006	0.00000E+000	6.93978E-001	0.00000E+000	8	...........
	170	6.84	6.60087E-001	-1.17757E-005	0.00000E+000	6.60011E-001	0.00000E+000	8	...........
	187	7.52	6.26067E-001	-1.39627E-005	0.00000E+000	6.25993E-001	0.00000E+000	8	...........
	204	8.2	5.92111E-001	-1.62273E-005	0.00000E+000	5.92026E-001	0.00000E+000	8	...........
	221	8.88	5.58066E-001	-1.87219E-005	0.00000E+000	5.58008E-001	0.00000E+000	8	...........
	238	9.56	5.24041E-001	-2.14246E-005	0.00000E+000	5.23991E-001	0.00000E+000	8	...........
	255	10.24	4.90074E-001	-2.48664E-005	0.00000E+000	4.90024E-001	0.00000E+000	8	...........
	272	10.92	4.56048E-001	-2.88813E-005	0.00000E+000	4.56006E-001	0.00000E+000	8	...........
	289	11.6	4.22030E-001	-3.34830E-005	0.00000E+000	4.21989E-001	0.00000E+000	8	...........
	306	12.28	3.88085E-001	-3.89541E-005	0.00000E+000	3.88021E-001	0.00000E+000	8	...........
	323	12.96	3.54030E-001	-4.62367E-005	0.00000E+000	3.54004E-001	0.00000E+000	8	...........
	340	13.64	3.19999E-001	-5.57100E-005	0.00000E+000	3.19986E-001	0.00000E+000	8	...........
	357	14.32	2.86050E-001	-6.82574E-005	0.00000E+000	2.86019E-001	0.00000E+000	8	...........
	374	15	2.52019E-001	-8.59731E-005	0.00000E+000	2.52002E-001	0.00000E+000	8	...........
	391	15.68	2.18001E-001	-1.13493E-004	0.00000E+000	2.17984E-001	0.00000E+000	9	...........
	408	16.36	1.84040E-001	-1.59188E-004	0.00000E+000	1.84017E-001	0.00000E+000	9	...........
	425	17.04	1.49999E-001	-2.46638E-004	0.00000E+000	1.49999E-001	0.00000E+000	9	...........
	442	17.72	1.15989E-001	-4.34355E-004	0.00000E+000	1.15982E-001	0.00000E+000	9	...........
	459	18.4	8.20271E-002	-8.00600E-004	0.00000E+000	8.20146E-002	0.00000E+000	9	...........
	476	19.08	4.79838E-002	-1.14670E-003	0.00000E+000	4.79971E-002	0.00000E+000	10	...........
	493	19.76	1.39750E-002	-1.24725E-003	0.00000E+000	1.39797E-002	0.00000E+000	10	...........
	510	20.44	-2.00141E-002	-1.20962E-003	0.00000E+000	-1.99877E-002	0.00000E+000	10	...........
	527	21.12	-5.40516E-002	-1.15902E-003	0.00000E+000	-5.40051E-002	0.00000E+000	10	...........
	544	21.8	-8.80590E-002	-1.15294E-003	0.00000E+000	-8.80225E-002	0.00000E+000	10	...........
	561	22.48	-1.22023E-001	-1.15023E-003	0.00000E+000	-1.21990E-001	0.00000E+000	10	...........
	578	23.16	-1.56047E-001	-1.12604E-003	0.00000E+000	-1.56007E-001	0.00000E+000	10	...........
	595	23.84	-1.90007E-001	-1.07402E-003	0.00000E+000	-1.89975E-001	0.00000E+000	10	...........
	612	24.52	-2.24025E-001	-1.00896E-003	0.00000E+000	-2.23992E-001	0.00000E+000	10	...........
	629	25.2	-2.58076E-001	-9.37628E-004	0.00000E+000	-2.58010E-001	0.00000E+000	10	...........
	646	25.88	-2.92022E-001	-8.67391E-004	0.00000E+000	-2.91977E-001	0.00000E+000	10	...........
	663	26.56	-3.26029E-001	-8.15446E-004	0.00000E+000	-3.25994E-001	0.00000E+000	10	...........
	680	27.24	-3.60071E-001	-7.79585E-004	0.00000E+000	-3.60012E-001	0.00000E+000	9	...........
	697	27.92	-3.94014E-001	-7.51835E-004	0.00000E+000	-3.93979E-001	0.00000E+000	9	...........
	714	28.6	-4.28053E-001	-7.34063E-004	0.00000E+000	-4.27997E-001	0.00000E+000	9	...........
	731	29.28	-4.62084E-001	-7.29064E-004	0.00000E+000	-4.62014E-001	0.00000E+000	9	...........
	748	29.96	-4.96044E-001	-7.38036E-004	0.00000E+000	-4.95981E-001	0.00000E+000	9	...........
	765	30.64	-5.30055E-001	-7.62246E-004	0.00000E+000	-5.29999E-001	0.00000E+000	9	...........
	782	31.32	-5.64098E-001	-7.99843E-004	0.00000E+000	-5.64016E-001	0.00000E+000	9	...........
	799	32	-5.98039E-001	-8.25148E-004	0.00000E+000	-5.97984E-001	0.00000E+000	9	...........
	816	32.68	-6.32054E-001	-8.21117E-004	0.00000E+000	-6.32001E-001	0.00000E+000	9	...........
	833	33.36	-6.66075E-001	-7.89220E-004	0.00000E+000	-6.66019E-001	0.00000E+000	9	...........
	850	34.04	-7.00059E-001	-7.36928E-004	0.00000E+000	-6.99986E-001	0.00000E+000	9	...........
	867	34.72	-7.34080E-001	-7.18867E-004	0.00000E+000	-7.34003E-001	0.00000E+000	9	...........
	884	35.4	-7.68091E-001	-9.60957E-004	0.00000E+000	-7.68021E-001	0.00000E+000	10	...........
	901	36.08	-7.98077E-001	-1.36157E-003	0.00000E+000	-7.97986E-001	0.00000E+000	10	...........
	918	36.76	-7.64083E-001	-3.59111E-004	0.00000E+000	-7.64019E-001	0.00000E+000	9	...........
	935	37.44	-7.30062E-001	-2.92969E-004	0.00000E+000	-7.30001E-001	0.00000E+000	9	...........
	952	38.12	-6.96061E-001	-3.26067E-004	0.00000E+000	-6.95984E-001	0.00000E+000	9	...........
	969	38.8	-6.62072E-001	-3.35519E-004	0.00000E+000	-6.62016E-001	0.00000E+000	9	...........
	986	39.48	-6.28074E-001	-3.22269E-004	0.00000E+000	-6.27999E-001	0.00000E+000	9	...........
	1003	40.16	-5.94039E-001	-2.94902E-004	0.00000E+000	-5.93982E-001	0.00000E+000	9	...........
	1020	40.84	-5.60069E-001	-2.66845E-004	0.00000E+000	-5.60014E-001	0.00000E+000	9	...........
	1037	41.52	-5.26062E-001	-2.46627E-004	0.00000E+000	-5.25997E-001	0.00000E+000	9	...........
	1054	42.2	-4.92048E-001	-2.44015E-004	0.00000E+000	-4.91979E-001	0.00000E+000	9	...........
	1071	42.88	-4.58067E-001	-2.63771E-004	0.00000E+000	-4.58012E-001	0.00000E+000	9	...........
	1088	43.56	-4.24057E-001	-2.92411E-004	0.00000E+000	-4.23995E-001	0.00000E+000	9	...........
	1105	44.24	-3.90017E-001	-3.19920E-004	0.00000E+000	-3.89977E-001	0.00000E+000	9	...........
	1122	44.92	-3.56046E-001	-3.26623E-004	0.00000E+000	-3.56010E-001	0.00000E+000	9	...........
	1139	45.6	-3.22037E-001	-3.16510E-004	0.00000E+000	-3.21992E-001	0.00000E+000	9	...........
	1156	46.28	-2.88026E-001	-3.00391E-004	0.00000E+000	-2.87975E-001	0.00000E+000	9	...........
	1173	46.96	-2.54039E-001	-2.81500E-004	0.00000E+000	-2.54008E-001	0.00000E+000	9	...........
	1190	47.64	-2.20022E-001	-2.59926E-004	0.00000E+000	-2.19990E-001	0.00000E+000	9	...........
	1207	48.32	-1.86068E-001	-2.36213E-004	0.00000E+000	-1.86023E-001	0.00000E+000	9	...........
	1224	49	-1.52019E-001	-2.09860E-004	0.00000E+000	-1.52005E-001	0.00000E+000	9	...........
	1241	49.68	-1.18025E-001	-1.81301E-004	0.00000E+000	-1.17988E-001	0.00000E+000	9	...........
	1258	50.36	-8.40610E-002	-1.51981E-004	0.00000E+000	-8.40205E-002	0.00000E+000	9	...........
	1275	51.04	-5.00350E-002	-1.22089E-004	0.00000E+000	-5.00031E-002	0.00000E+000	9	...........
	1292	51.72	-1.60115E-002	-9.09452E-005	0.00000E+000	-1.59856E-002	0.00000E+000	9	...........
	1309	52.4	1.79799E-002	-5.83777E-005	0.00000E+000	1.79818E-002	0.00000E+000	8	...........
	1326	53.08	5.20125E-002	-2.54963E-005	0.00000E+000	5.19992E-002	0.00000E+000	8	...........
	1343	53.76	8.60033E-002	8.01066E-006	0.00000E+000	8.60166E-002	0.00000E+000	8	...........
	1360	54.44	1.19958E-001	4.42777E-005	0.00000E+000	1.19984E-001	0.00000E+000	8	...........
	1377	55.12	1.54023E-001	8.29883E-005	0.00000E+000	1.54001E-001	0.00000E+000	8	...........
	1394	55.8	1.88020E-001	1.27557E-004	0.00000E+000	1.88019E-001	0.00000E+000	9	...........
	1411	56.48	2.22001E-001	1.78582E-004	0.00000E+000	2.21986E-001	0.00000E+000	9	...........
	1428	57.16	2.56014E-001	2.25889E-004	0.00000E+000	2.56004E-001	0.00000E+000	9	...........
	1445	57.84	2.90042E-001	2.50970E-004	0.00000E+000	2.90021E-001	0.00000E+000	9	...........
	1462	58.52	3.24011E-001	2.53320E-004	0.00000E+000	3.23988E-001	0.00000E+000	9	...........
	1479	59.2	3.58013E-001	2.49405E-004	0.00000E+000	3.58006E-001	0.00000E+000	9	...........
	1496	59.88	3.92061E-001	2.44856E-004	0.00000E+000	3.92023E-001	0.00000E+000	9	...........
	1513	60.56	4.26014E-001	2.41521E-004	0.00000E+000	4.25991E-001	0.00000E+000	9	...........
	1530	61.24	4.60035E-001	2.37448E-004	0.00000E+000	4.60008E-001	0.00000E+000	9	...........
	1547	61.92	4.94083E-001	2.32744E-004	0.00000E+000	4.94026E-001	0.00000E+000	9	...........
	1564	62.6	5.28042E-001	2.28831E-004	0.00000E+000	5.27993E-001	0.00000E+000	9	...........
	1581	63.28	5.62048E-001	2.25828E-004	0.00000E+000	5.62010E-001	0.00000E+000	9	...........
	1598	63.96	5.96046E-001	2.22923E-004	0.00000E+000	5.95978E-001	0.00000E+000	9	...........
	1615	64.64	6.30068E-001	2.21291E-004	0.00000E+000	6.29995E-001	0.00000E+000	9	...........
	1632	65.32	6.64077E-001	2.20886E-004	0.00000E+000	6.64013E-001	0.00000E+000	9	...........
	1649	66	6.98070E-001	2.22762E-004	0.00000E+000	6.97980E-001	0.00000E+000	9	...........
	1666	66.68	7.32081E-001	2.28679E-004	0.00000E+000	7.31997E-001	0.00000E+000	9	...........
	1683	67.36	7.66071E-001	2.40526E-004	0.00000E+000	7.66015E-001	0.00000E+000	9	...........
	1700	68.04	8.00073E-001	2.59625E-004	0.00000E+000	7.99982E-001	0.00000E+000	9	...........
	1717	68.72	8.34088E-001	2.87068E-004	0.00000E+000	8.34000E-001	0.00000E+000	9	...........
	1734	69.4	8.68103E-001	3.23185E-004	0.00000E+000	8.68017E-001	0.00000E+000	9	...........
	1751	70.08	9.02096E-001	3.65076E-004	0.00000E+000	9.01985E-001	0.00000E+000	9	...........
	1768	70.76	9.36101E-001	4.10643E-004	0.00000E+000	9.36002E-001	0.00000E+000	9	...........
	1785	71.44	9.70109E-001	4.58073E-004	0.00000E+000	9.70019E-001	0.00000E+000	9	...........
	1800	72.04	1.00010E+000	5.03160E-004	0.00000E+000	9.99985E-001	0.00000E+000	9	...........
CURVE2	TABLE
	Pt	T	Vf	Im	Vu	Sig	Ach	IERange	Over
	#	s	V vs. Ref.	A	V	V	V	#	bits
	1801	72.08	9.98079E-001	4.75456E-004	0.00000E+000	9.97984E-001	0.00000E+000	9	...........
	1818	72.76	9.64104E-001	2.29588E-004	0.00000E+000	9.64016E-001	0.00000E+000	9	...........
	1835	73.44	9.30087E-001	1.27065E-004	0.00000E+000	9.29999E-001	0.00000E+000	9	...........
	1852	74.12	8.96064E-001	7.27290E-005	0.00000E+000	8.95981E-001	0.00000E+000	8	...........
	1869	74.8	8.62109E-001	4.08437E-005	0.00000E+000	8.62014E-001	0.00000E+000	8	...........
[...]
	10891	435.68	8.18090E-001	1.47206E-005	0.00000E+000	8.17991E-001	0.00000E+000	8	...........
	10900	436.04	8.00089E-001	8.61619E-006	0.00000E+000	7.99982E-001	0.00000E+000	8	...........
	10909	436.4	7.82095E-001	-1.02093E-006	0.00000E+000	7.82023E-001	0.00000E+000	7	.....h.....
	10918	436.76	7.64085E-001	-4.00894E-006	0.00000E+000	7.64014E-001	0.00000E+000	7	.....h.....
	10927	437.12	7.46078E-001	-7.10378E-006	0.00000E+000	7.46005E-001	0.00000E+000	7	...........
	10936	437.48	7.28063E-001	-5.73940E-006	0.00000E+000	7.27995E-001	0.00000E+000	8	...........
	10945	437.84	7.10080E-001	-9.92630E-006	0.00000E+000	7.09986E-001	0.00000E+000	7	....ih..i..
	10954	438.2	6.92054E-001	-8.99303E-006	0.00000E+000	6.91977E-001	0.00000E+000	8	...........
	10963	438.56	6.74110E-001	-1.02519E-005	0.00000E+000	6.74018E-001	0.00000E+000	8	...........
	10972	438.92	6.56087E-001	-1.11488E-005	0.00000E+000	6.56009E-001	0.00000E+000	8	...........
	10981	439.28	6.38080E-001	-1.24905E-005	0.00000E+000	6.37999E-001	0.00000E+000	8	...........
	10990	439.64	6.20073E-001	-1.30972E-005	0.00000E+000	6.19990E-001	0.00000E+000	8	...........
	10999	440	6.02045E-001	-1.45580E-005	0.00000E+000	6.01981E-001	0.00000E+000	8	...........
	11008	440.36	5.84097E-001	-1.55527E-005	0.00000E+000	5.84022E-001	0.00000E+000	8	...........
	11017	440.72	5.66091E-001	-1.66545E-005	0.00000E+000	5.66012E-001	0.00000E+000	8	...........
	11026	441.08	5.48070E-001	-1.83266E-005	0.00000E+000	5.48003E-001	0.00000E+000	8	...........
	11035	441.44	5.30050E-001	-1.92087E-005	0.00000E+000	5.29994E-001	0.00000E+000	8	...........
	11044	441.8	5.12015E-001	-2.09353E-005	0.00000E+000	5.11985E-001	0.00000E+000	8	...........
	11053	442.16	4.94083E-001	-2.22511E-005	0.00000E+000	4.94026E-001	0.00000E+000	8	...........
	11062	442.52	4.76080E-001	-2.37784E-005	0.00000E+000	4.76016E-001	0.00000E+000	8	...........
	11071	442.88	4.58032E-001	-2.59590E-005	0.00000E+000	4.58007E-001	0.00000E+000	8	...........
	11080	443.24	4.40048E-001	-2.75643E-005	0.00000E+000	4.39998E-001	0.00000E+000	8	...........
	11089	443.6	4.22017E-001	-3.02180E-005	0.00000E+000	4.21989E-001	0.00000E+000	8	...........
	11098	443.96	4.04045E-001	-3.24357E-005	0.00000E+000	4.03979E-001	0.00000E+000	8	...........
	11107	444.32	3.86069E-001	-3.51686E-005	0.00000E+000	3.86020E-001	0.00000E+000	8	...........
	11116	444.68	3.68035E-001	-3.84286E-005	0.00000E+000	3.68011E-001	0.00000E+000	8	...........
	11125	445.04	3.50032E-001	-4.14107E-005	0.00000E+000	3.50002E-001	0.00000E+000	8	...........
	11134	445.4	3.32010E-001	-4.57242E-005	0.00000E+000	3.31993E-001	0.00000E+000	8	...........
	11143	445.76	3.14002E-001	-4.98732E-005	0.00000E+000	3.13983E-001	0.00000E+000	8	...........
	11152	446.12	2.96062E-001	-5.48967E-005	0.00000E+000	2.96024E-001	0.00000E+000	8	...........
	11161	446.48	2.78048E-001	-6.13313E-005	0.00000E+000	2.78015E-001	0.00000E+000	8	...........
	11170	446.84	2.60052E-001	-6.83003E-005	0.00000E+000	2.60006E-001	0.00000E+000	8	...........
	11179	447.2	2.42024E-001	-7.76358E-005	0.00000E+000	2.41996E-001	0.00000E+000	8	...........
	11188	447.56	2.24004E-001	-8.85514E-005	0.00000E+000	2.23987E-001	0.00000E+000	8	...........
	11197	447.92	2.06005E-001	-1.03323E-004	0.00000E+000	2.05978E-001	0.00000E+000	9	...........
	11206	448.28	1.88023E-001	-1.22130E-004	0.00000E+000	1.88019E-001	0.00000E+000	9	...........
	11215	448.64	1.70034E-001	-1.47447E-004	0.00000E+000	1.70010E-001	0.00000E+000	9	...........
	11224	449	1.51991E-001	-1.83479E-004	0.00000E+000	1.52000E-001	0.00000E+000	9	...........
	11233	449.36	1.33984E-001	-2.33405E-004	0.00000E+000	1.33991E-001	0.00000E+000	9	...........
	11242	449.72	1.15995E-001	-3.04644E-004	0.00000E+000	1.15982E-001	0.00000E+000	9	...........
	11251	450.08	9.80268E-002	-3.97855E-004	0.00000E+000	9.80228E-002	0.00000E+000	9	...........
	11260	450.44	8.00173E-002	-5.02981E-004	0.00000E+000	8.00135E-002	0.00000E+000	9	...........
	11269	450.8	6.19980E-002	-5.92903E-004	0.00000E+000	6.20043E-002	0.00000E+000	9	...........
	11278	451.16	4.39864E-002	-6.42122E-004	0.00000E+000	4.39951E-002	0.00000E+000	9	...........
	11287	451.52	2.60072E-002	-6.59839E-004	0.00000E+000	2.59859E-002	0.00000E+000	9	...........
	11296	451.88	8.02882E-003	-6.70981E-004	0.00000E+000	8.02667E-003	0.00000E+000	9	...........
	11305	452.24	-9.98462E-003	-6.96431E-004	0.00000E+000	-9.98255E-003	0.00000E+000	9	...........
	11314	452.6	-2.80037E-002	-7.41529E-004	0.00000E+000	-2.79918E-002	0.00000E+000	9	...........
	11323	452.96	-4.60096E-002	-7.99720E-004	0.00000E+000	-4.60010E-002	0.00000E+000	9	...........
	11332	453.32	-6.40358E-002	-8.63573E-004	0.00000E+000	-6.40102E-002	0.00000E+000	9	...........
	11341	453.68	-8.20644E-002	-9.16216E-004	0.00000E+000	-8.20194E-002	0.00000E+000	10	...........
	11350	454.04	-1.00010E-001	-9.48266E-004	0.00000E+000	-9.99786E-002	0.00000E+000	10	...........
	11359	454.4	-1.18016E-001	-9.56093E-004	0.00000E+000	-1.17988E-001	0.00000E+000	10	...........
	11368	454.76	-1.36023E-001	-9.40309E-004	0.00000E+000	-1.35997E-001	0.00000E+000	10	...........
	11377	455.12	-1.54062E-001	-9.08276E-004	0.00000E+000	-1.54006E-001	0.00000E+000	10	...........
	11386	455.48	-1.72050E-001	-8.69822E-004	0.00000E+000	-1.72016E-001	0.00000E+000	10	...........
	11395	455.84	-1.90020E-001	-8.27051E-004	0.00000E+000	-1.89975E-001	0.00000E+000	10	...........
	11404	456.2	-2.08012E-001	-7.85127E-004	0.00000E+000	-2.07984E-001	0.00000E+000	9	...........
	11413	456.56	-2.26022E-001	-7.40497E-004	0.00000E+000	-2.25993E-001	0.00000E+000	9	...........
	11422	456.92	-2.44036E-001	-7.00134E-004	0.00000E+000	-2.44002E-001	0.00000E+000	9	...........
	11431	457.28	-2.62066E-001	-6.63095E-004	0.00000E+000	-2.62012E-001	0.00000E+000	9	...........
	11440	457.64	-2.80060E-001	-6.30148E-004	0.00000E+000	-2.80021E-001	0.00000E+000	9	...........
	11449	458	-2.98043E-001	-6.01338E-004	0.00000E+000	-2.97980E-001	0.00000E+000	9	...........
	11458	458.36	-3.16028E-001	-5.75416E-004	0.00000E+000	-3.15989E-001	0.00000E+000	9	...........
	11467	458.72	-3.34060E-001	-5.55571E-004	0.00000E+000	-3.33999E-001	0.00000E+000	9	...........
	11476	459.08	-3.52049E-001	-5.39397E-004	0.00000E+000	-3.52008E-001	0.00000E+000	9	...........
	11485	459.44	-3.70060E-001	-5.26600E-004	0.00000E+000	-3.70017E-001	0.00000E+000	9	...........
	11494	459.8	-3.88025E-001	-5.17992E-004	0.00000E+000	-3.87976E-001	0.00000E+000	9	...........
	11503	460.16	-4.06027E-001	-5.09301E-004	0.00000E+000	-4.05985E-001	0.00000E+000	9	...........
	11512	460.52	-4.24052E-001	-5.04389E-004	0.00000E+000	-4.23995E-001	0.00000E+000	9	...........
	11521	460.88	-4.42051E-001	-5.01291E-004	0.00000E+000	-4.42004E-001	0.00000E+000	9	...........
	11530	461.24	-4.60053E-001	-5.02142E-004	0.00000E+000	-4.60013E-001	0.00000E+000	9	...........
	11539	461.6	-4.78040E-001	-5.05732E-004	0.00000E+000	-4.77972E-001	0.00000E+000	9	...........
	11548	461.96	-4.96047E-001	-5.12383E-004	0.00000E+000	-4.95981E-001	0.00000E+000	9	...........
	11557	462.32	-5.14082E-001	-5.26144E-004	0.00000E+000	-5.13991E-001	0.00000E+000	9	...........
	11566	462.68	-5.32053E-001	-5.44187E-004	0.00000E+000	-5.32000E-001	0.00000E+000	9	...........
	11575	463.04	-5.50055E-001	-5.67907E-004	0.00000E+000	-5.50009E-001	0.00000E+000	9	...........
	11584	463.4	-5.68074E-001	-5.89407E-004	0.00000E+000	-5.68018E-001	0.00000E+000	9	...........
	11593	463.76	-5.86026E-001	-6.03951E-004	0.00000E+000	-5.85978E-001	0.00000E+000	9	...........
	11602	464.12	-6.04062E-001	-6.13598E-004	0.00000E+000	-6.03987E-001	0.00000E+000	9	...........
	11611	464.48	-6.22045E-001	-6.11247E-004	0.00000E+000	-6.21996E-001	0.00000E+000	9	...........
	11620	464.84	-6.40054E-001	-5.96355E-004	0.00000E+000	-6.40005E-001	0.00000E+000	9	...........
	11629	465.2	-6.58086E-001	-5.66838E-004	0.00000E+000	-6.58014E-001	0.00000E+000	9	...........
	11638	465.56	-6.76039E-001	-5.38655E-004	0.00000E+000	-6.75974E-001	0.00000E+000	9	...........
	11647	465.92	-6.94069E-001	-5.24067E-004	0.00000E+000	-6.93983E-001	0.00000E+000	9	...........
	11656	466.28	-7.12071E-001	-5.09971E-004	0.00000E+000	-7.11992E-001	0.00000E+000	9	...........
	11665	466.64	-7.30065E-001	-5.08220E-004	0.00000E+000	-7.30001E-001	0.00000E+000	9	...........
	11674	467	-7.48085E-001	-5.49846E-004	0.00000E+000	-7.48011E-001	0.00000E+000	9	...........
	11683	467.36	-7.66082E-001	-6.86167E-004	0.00000E+000	-7.66020E-001	0.00000E+000	9	...........
	11692	467.72	-7.84064E-001	-9.60459E-004	0.00000E+000	-7.83979E-001	0.00000E+000	10	...........
	11700	468.04	-8.00072E-001	-1.33677E-003	0.00000E+000	-7.99987E-001	0.00000E+000	10	...........